lam(nm) Flux (10^-20 J/s/m2/um)
324.735 1.74343e+06
324.81 1.74343e+06
324.885 1.7303e+06
324.96 1.71717e+06
325.035 1.71717e+06
325.11 1.71717e+06
325.185 1.70407e+06
325.26 1.69097e+06
325.335 1.69097e+06
325.41 1.69097e+06
325.485 1.70688e+06
325.56 1.72278e+06
325.635 1.72278e+06
325.71 1.72278e+06
325.785 1.73866e+06
325.86 1.75454e+06
325.935 1.75454e+06
326.01 1.75454e+06
326.085 1.77039e+06
326.16 1.78624e+06
326.235 1.78624e+06
326.31 1.78624e+06
326.385 1.80206e+06
326.46 1.81788e+06
326.535 1.81788e+06
326.61 1.81788e+06
326.685 1.83367e+06
326.76 1.84946e+06
326.835 1.84946e+06
326.91 1.84946e+06
326.985 1.86522e+06
327.06 1.88098e+06
327.135 1.88098e+06
327.21 1.88098e+06
327.285 1.89672e+06
327.36 1.91246e+06
327.435 1.91246e+06
327.51 1.91246e+06
327.585 1.92816e+06
327.66 1.94386e+06
327.735 1.94386e+06
327.81 1.94386e+06
327.885 1.95954e+06
327.96 1.97521e+06
328.035 1.97521e+06
328.11 1.97521e+06
328.185 1.99086e+06
328.26 2.00651e+06
328.335 2.00651e+06
328.41 2.00651e+06
328.485 1.99838e+06
328.56 1.99025e+06
328.635 1.99025e+06
328.71 1.99025e+06
328.785 1.98214e+06
328.86 1.97403e+06
328.935 1.97403e+06
329.01 1.97403e+06
329.085 1.96593e+06
329.16 1.95783e+06
329.235 1.95783e+06
329.31 1.95783e+06
329.385 1.94975e+06
329.46 1.94166e+06
329.535 1.94166e+06
329.61 1.94166e+06
329.685 1.93359e+06
329.76 1.92552e+06
329.835 1.92552e+06
329.91 1.92552e+06
329.985 1.91747e+06
330.06 1.90942e+06
330.135 1.90942e+06
330.21 1.90942e+06
330.285 1.90138e+06
330.36 1.89334e+06
330.435 1.89334e+06
330.51 1.89334e+06
330.585 1.88531e+06
330.66 1.87728e+06
330.735 1.87728e+06
330.81 1.87728e+06
330.885 1.86927e+06
330.96 1.86127e+06
331.035 1.86127e+06
331.11 1.86127e+06
331.185 1.85327e+06
331.26 1.84527e+06
331.335 1.84527e+06
331.41 1.84527e+06
331.485 1.84307e+06
331.56 1.84086e+06
331.635 1.84086e+06
331.71 1.84086e+06
331.785 1.83865e+06
331.86 1.83644e+06
331.935 1.83644e+06
332.01 1.83644e+06
332.085 1.83425e+06
332.16 1.83205e+06
332.235 1.83205e+06
332.31 1.83205e+06
332.385 1.82985e+06
332.46 1.82765e+06
332.535 1.82765e+06
332.61 1.82765e+06
332.685 1.82546e+06
332.76 1.82326e+06
332.835 1.82326e+06
332.91 1.82326e+06
332.985 1.82107e+06
333.06 1.81888e+06
333.135 1.81888e+06
333.21 1.81888e+06
333.285 1.8167e+06
333.36 1.81451e+06
333.435 1.81451e+06
333.51 1.81451e+06
333.585 1.81234e+06
333.66 1.81016e+06
333.735 1.81016e+06
333.81 1.81016e+06
333.885 1.80798e+06
333.96 1.8058e+06
334.035 1.8058e+06
334.11 1.8058e+06
334.185 1.80363e+06
334.26 1.80146e+06
334.335 1.80146e+06
334.41 1.80146e+06
334.485 1.78408e+06
334.56 1.76671e+06
334.635 1.76671e+06
334.71 1.76671e+06
334.785 1.74936e+06
334.86 1.73202e+06
334.935 1.73202e+06
335.01 1.73202e+06
335.085 1.71471e+06
335.16 1.69739e+06
335.235 1.69739e+06
335.31 1.69739e+06
335.385 1.68011e+06
335.46 1.66282e+06
335.535 1.66282e+06
335.61 1.66282e+06
335.685 1.64557e+06
335.76 1.62832e+06
335.835 1.62832e+06
335.91 1.62832e+06
335.985 1.6111e+06
336.06 1.59388e+06
336.135 1.59388e+06
336.21 1.59388e+06
336.285 1.57669e+06
336.36 1.5595e+06
336.435 1.5595e+06
336.51 1.5595e+06
336.585 1.54234e+06
336.66 1.52518e+06
336.735 1.52518e+06
336.81 1.52518e+06
336.885 1.50805e+06
336.96 1.49092e+06
337.035 1.49092e+06
337.11 1.49092e+06
337.185 1.47382e+06
337.26 1.45673e+06
337.335 1.45673e+06
337.41 1.45673e+06
337.485 1.47528e+06
337.56 1.49383e+06
337.635 1.49383e+06
337.71 1.49383e+06
337.785 1.51235e+06
337.86 1.53088e+06
337.935 1.53088e+06
338.01 1.53088e+06
338.085 1.54937e+06
338.16 1.56786e+06
338.235 1.56786e+06
338.31 1.56786e+06
338.385 1.58631e+06
338.46 1.60477e+06
338.535 1.60477e+06
338.61 1.60477e+06
338.685 1.62319e+06
338.76 1.64161e+06
338.835 1.64161e+06
338.91 1.64161e+06
338.985 1.66e+06
339.06 1.67839e+06
339.135 1.67839e+06
339.21 1.67839e+06
339.285 1.69675e+06
339.36 1.71511e+06
339.435 1.71511e+06
339.51 1.71511e+06
339.585 1.73344e+06
339.66 1.75177e+06
339.735 1.75177e+06
339.81 1.75177e+06
339.885 1.77006e+06
339.96 1.78835e+06
340.035 1.78835e+06
340.11 1.78835e+06
340.185 1.80661e+06
340.26 1.82487e+06
340.335 1.82487e+06
340.41 1.82487e+06
340.485 1.81745e+06
340.56 1.81004e+06
340.635 1.81004e+06
340.71 1.81004e+06
340.785 1.80263e+06
340.86 1.79522e+06
340.935 1.79522e+06
341.01 1.79522e+06
341.085 1.78783e+06
341.16 1.78044e+06
341.235 1.78044e+06
341.31 1.78044e+06
341.385 1.77306e+06
341.46 1.76568e+06
341.535 1.76568e+06
341.61 1.76568e+06
341.685 1.75831e+06
341.76 1.75095e+06
341.835 1.75095e+06
341.91 1.75095e+06
341.985 1.7436e+06
342.06 1.73624e+06
342.135 1.73624e+06
342.21 1.73624e+06
342.285 1.7289e+06
342.36 1.72155e+06
342.435 1.72155e+06
342.51 1.72155e+06
342.585 1.71423e+06
342.66 1.7069e+06
342.735 1.7069e+06
342.81 1.7069e+06
342.885 1.69959e+06
342.96 1.69227e+06
343.035 1.69227e+06
343.11 1.69227e+06
343.185 1.68497e+06
343.26 1.67767e+06
343.335 1.67767e+06
343.41 1.67767e+06
343.485 1.67823e+06
343.56 1.67879e+06
343.635 1.67879e+06
343.71 1.67879e+06
343.785 1.67935e+06
343.86 1.67991e+06
343.935 1.67991e+06
344.01 1.67991e+06
344.085 1.68047e+06
344.16 1.68104e+06
344.235 1.68104e+06
344.31 1.68104e+06
344.385 1.6816e+06
344.46 1.68215e+06
344.535 1.68215e+06
344.61 1.68215e+06
344.685 1.68271e+06
344.76 1.68327e+06
344.835 1.68327e+06
344.91 1.68327e+06
344.985 1.68382e+06
345.06 1.68438e+06
345.135 1.68438e+06
345.21 1.68438e+06
345.285 1.68494e+06
345.36 1.6855e+06
345.435 1.6855e+06
345.51 1.6855e+06
345.585 1.68605e+06
345.66 1.6866e+06
345.735 1.6866e+06
345.81 1.6866e+06
345.885 1.68716e+06
345.96 1.68772e+06
346.035 1.68772e+06
346.11 1.68772e+06
346.185 1.68827e+06
346.26 1.68882e+06
346.335 1.68882e+06
346.41 1.68882e+06
346.485 1.68653e+06
346.56 1.68424e+06
346.635 1.68424e+06
346.71 1.68424e+06
346.785 1.68195e+06
346.86 1.67967e+06
346.935 1.67967e+06
347.01 1.67967e+06
347.085 1.67739e+06
347.16 1.67511e+06
347.235 1.67511e+06
347.31 1.67511e+06
347.385 1.67283e+06
347.46 1.67055e+06
347.535 1.67055e+06
347.61 1.67055e+06
347.685 1.66827e+06
347.76 1.666e+06
347.835 1.666e+06
347.91 1.666e+06
347.985 1.66373e+06
348.06 1.66146e+06
348.135 1.66146e+06
348.21 1.66146e+06
348.285 1.65919e+06
348.36 1.65692e+06
348.435 1.65692e+06
348.51 1.65692e+06
348.585 1.65466e+06
348.66 1.6524e+06
348.735 1.6524e+06
348.81 1.6524e+06
348.885 1.65014e+06
348.96 1.64788e+06
349.035 1.64788e+06
349.11 1.64788e+06
349.185 1.64563e+06
349.26 1.64337e+06
349.335 1.64337e+06
349.41 1.64337e+06
349.485 1.60771e+06
349.56 1.57205e+06
349.635 1.57205e+06
349.71 1.57205e+06
349.785 1.53645e+06
349.86 1.50084e+06
349.935 1.50084e+06
350.01 1.50084e+06
350.085 1.4653e+06
350.16 1.42976e+06
350.235 1.42976e+06
350.31 1.42976e+06
350.385 1.39428e+06
350.46 1.3588e+06
350.535 1.3588e+06
350.61 1.3588e+06
350.685 1.32338e+06
350.76 1.28797e+06
350.835 1.28797e+06
350.91 1.28797e+06
350.985 1.25261e+06
351.06 1.21725e+06
351.135 1.21725e+06
351.21 1.21725e+06
351.285 1.18195e+06
351.36 1.14665e+06
351.435 1.14665e+06
351.51 1.14665e+06
351.585 1.11141e+06
351.66 1.07618e+06
351.735 1.07618e+06
351.81 1.07618e+06
351.885 1.041e+06
351.96 1.00582e+06
352.035 1.00582e+06
352.11 1.00582e+06
352.185 970700
352.26 935582
352.335 935582
352.41 935582
352.485 966082
352.56 996582
352.635 996582
352.71 996582
352.785 1.02703e+06
352.86 1.05748e+06
352.935 1.05748e+06
353.01 1.05748e+06
353.085 1.08787e+06
353.16 1.11827e+06
353.235 1.11827e+06
353.31 1.11827e+06
353.385 1.14861e+06
353.46 1.17896e+06
353.535 1.17896e+06
353.61 1.17896e+06
353.685 1.20925e+06
353.76 1.23954e+06
353.835 1.23954e+06
353.91 1.23954e+06
353.985 1.26979e+06
354.06 1.30003e+06
354.135 1.30003e+06
354.21 1.30003e+06
354.285 1.33022e+06
354.36 1.36041e+06
354.435 1.36041e+06
354.51 1.36041e+06
354.585 1.39055e+06
354.66 1.42069e+06
354.735 1.42069e+06
354.81 1.42069e+06
354.885 1.45078e+06
354.96 1.48087e+06
355.035 1.48087e+06
355.11 1.48087e+06
355.185 1.51091e+06
355.26 1.54095e+06
355.335 1.54095e+06
355.41 1.54095e+06
355.485 1.53524e+06
355.56 1.52954e+06
355.635 1.52954e+06
355.71 1.52954e+06
355.785 1.52385e+06
355.86 1.51816e+06
355.935 1.51816e+06
356.01 1.51816e+06
356.085 1.51248e+06
356.16 1.5068e+06
356.235 1.5068e+06
356.31 1.5068e+06
356.385 1.50112e+06
356.46 1.49545e+06
356.535 1.49545e+06
356.61 1.49545e+06
356.685 1.48979e+06
356.76 1.48412e+06
356.835 1.48412e+06
356.91 1.48412e+06
356.985 1.47847e+06
357.06 1.47282e+06
357.135 1.47282e+06
357.21 1.47282e+06
357.285 1.46718e+06
357.36 1.46154e+06
357.435 1.46154e+06
357.51 1.46154e+06
357.585 1.4559e+06
357.66 1.45026e+06
357.735 1.45026e+06
357.81 1.45026e+06
357.885 1.44464e+06
357.96 1.43902e+06
358.035 1.43902e+06
358.11 1.43902e+06
358.185 1.4334e+06
358.26 1.42779e+06
358.335 1.42779e+06
358.41 1.42779e+06
358.485 1.41194e+06
358.56 1.39609e+06
358.635 1.39609e+06
358.71 1.39609e+06
358.785 1.38027e+06
358.86 1.36445e+06
358.935 1.36445e+06
359.01 1.36445e+06
359.085 1.34866e+06
359.16 1.33287e+06
359.235 1.33287e+06
359.31 1.33287e+06
359.385 1.3171e+06
359.46 1.30133e+06
359.535 1.30133e+06
359.61 1.30133e+06
359.685 1.28559e+06
359.76 1.26985e+06
359.835 1.26985e+06
359.91 1.26985e+06
359.985 1.25414e+06
360.06 1.23842e+06
360.135 1.23842e+06
360.21 1.23842e+06
360.285 1.22273e+06
360.36 1.20704e+06
360.435 1.20704e+06
360.51 1.20704e+06
360.585 1.19138e+06
360.66 1.17572e+06
360.735 1.17572e+06
360.81 1.17572e+06
360.885 1.16008e+06
360.96 1.14445e+06
361.035 1.14445e+06
361.11 1.14445e+06
361.185 1.12883e+06
361.26 1.11322e+06
361.335 1.11322e+06
361.41 1.11322e+06
361.485 1.10194e+06
361.56 1.09065e+06
361.635 1.09065e+06
361.71 1.09065e+06
361.785 1.07938e+06
361.86 1.06812e+06
361.935 1.06812e+06
362.01 1.06812e+06
362.085 1.05687e+06
362.16 1.04562e+06
362.235 1.04562e+06
362.31 1.04562e+06
362.385 1.03439e+06
362.46 1.02316e+06
362.535 1.02316e+06
362.61 1.02316e+06
362.685 1.01194e+06
362.76 1.00073e+06
362.835 1.00073e+06
362.91 1.00073e+06
362.985 989537
363.06 978344
363.135 978344
363.21 978344
363.285 967171
363.36 955998
363.435 955998
363.51 955998
363.585 944842
363.66 933686
363.735 933686
363.81 933686
363.885 922546
363.96 911406
364.035 911406
364.11 911406
364.185 900286
364.26 889165
364.335 889165
364.41 889165
364.485 912036
364.56 934907
364.635 934907
364.71 934907
364.785 957740
364.86 980573
364.935 980573
365.01 980573
365.085 1.00337e+06
365.16 1.02616e+06
365.235 1.02616e+06
365.31 1.02616e+06
365.385 1.04892e+06
365.46 1.07168e+06
365.535 1.07168e+06
365.61 1.07168e+06
365.685 1.0944e+06
365.76 1.11712e+06
365.835 1.11712e+06
365.91 1.11712e+06
365.985 1.13981e+06
366.06 1.16249e+06
366.135 1.16249e+06
366.21 1.16249e+06
366.285 1.18514e+06
366.36 1.20778e+06
366.435 1.20778e+06
366.51 1.20778e+06
366.585 1.23039e+06
366.66 1.253e+06
366.735 1.253e+06
366.81 1.253e+06
366.885 1.27557e+06
366.96 1.29814e+06
367.035 1.29814e+06
367.11 1.29814e+06
367.185 1.32068e+06
367.26 1.34322e+06
367.335 1.34322e+06
367.41 1.34322e+06
367.485 1.35146e+06
367.56 1.3597e+06
367.635 1.3597e+06
367.71 1.3597e+06
367.785 1.36794e+06
367.86 1.37617e+06
367.935 1.37617e+06
368.01 1.37617e+06
368.085 1.38438e+06
368.16 1.3926e+06
368.235 1.3926e+06
368.31 1.3926e+06
368.385 1.40081e+06
368.46 1.40901e+06
368.535 1.40901e+06
368.61 1.40901e+06
368.685 1.4172e+06
368.76 1.4254e+06
368.835 1.4254e+06
368.91 1.4254e+06
368.985 1.43357e+06
369.06 1.44175e+06
369.135 1.44175e+06
369.21 1.44175e+06
369.285 1.44991e+06
369.36 1.45808e+06
369.435 1.45808e+06
369.51 1.45808e+06
369.585 1.46623e+06
369.66 1.47438e+06
369.735 1.47438e+06
369.81 1.47438e+06
369.885 1.48252e+06
369.96 1.49066e+06
370.035 1.49066e+06
370.11 1.49066e+06
370.185 1.49878e+06
370.26 1.50691e+06
370.335 1.50691e+06
370.41 1.50691e+06
370.485 1.50639e+06
370.56 1.50587e+06
370.635 1.50587e+06
370.71 1.50587e+06
370.785 1.50535e+06
370.86 1.50483e+06
370.935 1.50483e+06
371.01 1.50483e+06
371.085 1.50432e+06
371.16 1.5038e+06
371.235 1.5038e+06
371.31 1.5038e+06
371.385 1.50329e+06
371.46 1.50278e+06
371.535 1.50278e+06
371.61 1.50278e+06
371.685 1.50226e+06
371.76 1.50175e+06
371.835 1.50175e+06
371.91 1.50175e+06
371.985 1.50123e+06
372.06 1.50072e+06
372.135 1.50072e+06
372.21 1.50072e+06
372.285 1.50021e+06
372.36 1.49969e+06
372.435 1.49969e+06
372.51 1.49969e+06
372.585 1.49918e+06
372.66 1.49866e+06
372.735 1.49866e+06
372.81 1.49866e+06
372.885 1.49815e+06
372.96 1.49764e+06
373.035 1.49764e+06
373.11 1.49764e+06
373.185 1.49713e+06
373.26 1.49662e+06
373.335 1.49662e+06
373.41 1.49662e+06
373.485 1.49297e+06
373.56 1.48933e+06
373.635 1.48933e+06
373.71 1.48933e+06
373.785 1.48569e+06
373.86 1.48205e+06
373.935 1.48205e+06
374.01 1.48205e+06
374.085 1.47841e+06
374.16 1.47477e+06
374.235 1.47477e+06
374.31 1.47477e+06
374.385 1.47114e+06
374.46 1.46751e+06
374.535 1.46751e+06
374.61 1.46751e+06
374.685 1.46389e+06
374.76 1.46027e+06
374.835 1.46027e+06
374.91 1.46027e+06
374.985 1.45665e+06
375.06 1.45303e+06
375.135 1.45303e+06
375.21 1.45303e+06
375.285 1.44942e+06
375.36 1.4458e+06
375.435 1.4458e+06
375.51 1.4458e+06
375.585 1.4422e+06
375.66 1.43859e+06
375.735 1.43859e+06
375.81 1.43859e+06
375.885 1.43499e+06
375.96 1.43139e+06
376.035 1.43139e+06
376.11 1.43139e+06
376.185 1.42779e+06
376.26 1.4242e+06
376.335 1.4242e+06
376.41 1.4242e+06
376.485 1.42535e+06
376.56 1.4265e+06
376.635 1.4265e+06
376.71 1.4265e+06
376.785 1.42765e+06
376.86 1.4288e+06
376.935 1.4288e+06
377.01 1.4288e+06
377.085 1.42995e+06
377.16 1.43109e+06
377.235 1.43109e+06
377.31 1.43109e+06
377.385 1.43224e+06
377.46 1.43338e+06
377.535 1.43338e+06
377.61 1.43338e+06
377.685 1.43453e+06
377.76 1.43567e+06
377.835 1.43567e+06
377.91 1.43567e+06
377.985 1.43682e+06
378.06 1.43796e+06
378.135 1.43796e+06
378.21 1.43796e+06
378.285 1.4391e+06
378.36 1.44024e+06
378.435 1.44024e+06
378.51 1.44024e+06
378.585 1.44138e+06
378.66 1.44252e+06
378.735 1.44252e+06
378.81 1.44252e+06
378.885 1.44366e+06
378.96 1.44479e+06
379.035 1.44479e+06
379.11 1.44479e+06
379.185 1.44593e+06
379.26 1.44706e+06
379.335 1.44706e+06
379.41 1.44706e+06
379.485 1.45001e+06
379.56 1.45295e+06
379.635 1.45295e+06
379.71 1.45295e+06
379.785 1.45589e+06
379.86 1.45884e+06
379.935 1.45884e+06
380.01 1.45884e+06
380.085 1.46178e+06
380.16 1.46471e+06
380.235 1.46471e+06
380.31 1.46471e+06
380.385 1.46765e+06
380.46 1.47058e+06
380.535 1.47058e+06
380.61 1.47058e+06
380.685 1.47351e+06
380.76 1.47643e+06
380.835 1.47643e+06
380.91 1.47643e+06
380.985 1.47935e+06
381.06 1.48227e+06
381.135 1.48227e+06
381.21 1.48227e+06
381.285 1.48519e+06
381.36 1.48811e+06
381.435 1.48811e+06
381.51 1.48811e+06
381.585 1.49103e+06
381.66 1.49394e+06
381.735 1.49394e+06
381.81 1.49394e+06
381.885 1.49685e+06
381.96 1.49976e+06
382.035 1.49976e+06
382.11 1.49976e+06
382.185 1.50267e+06
382.26 1.50557e+06
382.335 1.50557e+06
382.41 1.50557e+06
382.485 1.50469e+06
382.56 1.50381e+06
382.635 1.50381e+06
382.71 1.50381e+06
382.785 1.50293e+06
382.86 1.50205e+06
382.935 1.50205e+06
383.01 1.50205e+06
383.085 1.50117e+06
383.16 1.50029e+06
383.235 1.50029e+06
383.31 1.50029e+06
383.385 1.49941e+06
383.46 1.49853e+06
383.535 1.49853e+06
383.61 1.49853e+06
383.685 1.49766e+06
383.76 1.49678e+06
383.835 1.49678e+06
383.91 1.49678e+06
383.985 1.4959e+06
384.06 1.49503e+06
384.135 1.49503e+06
384.21 1.49503e+06
384.285 1.49415e+06
384.36 1.49328e+06
384.435 1.49328e+06
384.51 1.49328e+06
384.585 1.49241e+06
384.66 1.49154e+06
384.735 1.49154e+06
384.81 1.49154e+06
384.885 1.49067e+06
384.96 1.48979e+06
385.035 1.48979e+06
385.11 1.48979e+06
385.185 1.48892e+06
385.26 1.48805e+06
385.335 1.48805e+06
385.41 1.48805e+06
385.485 1.47515e+06
385.56 1.46226e+06
385.635 1.46226e+06
385.71 1.46226e+06
385.785 1.44938e+06
385.86 1.4365e+06
385.935 1.4365e+06
386.01 1.4365e+06
386.085 1.42364e+06
386.16 1.41078e+06
386.235 1.41078e+06
386.31 1.41078e+06
386.385 1.39795e+06
386.46 1.38511e+06
386.535 1.38511e+06
386.61 1.38511e+06
386.685 1.37229e+06
386.76 1.35947e+06
386.835 1.35947e+06
386.91 1.35947e+06
386.985 1.34667e+06
387.06 1.33388e+06
387.135 1.33388e+06
387.21 1.33388e+06
387.285 1.3211e+06
387.36 1.30832e+06
387.435 1.30832e+06
387.51 1.30832e+06
387.585 1.29556e+06
387.66 1.2828e+06
387.735 1.2828e+06
387.81 1.2828e+06
387.885 1.27006e+06
387.96 1.25732e+06
388.035 1.25732e+06
388.11 1.25732e+06
388.185 1.24461e+06
388.26 1.23189e+06
388.335 1.23189e+06
388.41 1.23189e+06
388.485 1.23449e+06
388.56 1.2371e+06
388.635 1.2371e+06
388.71 1.2371e+06
388.785 1.2397e+06
388.86 1.24231e+06
388.935 1.24231e+06
389.01 1.24231e+06
389.085 1.24491e+06
389.16 1.24751e+06
389.235 1.24751e+06
389.31 1.24751e+06
389.385 1.25011e+06
389.46 1.2527e+06
389.535 1.2527e+06
389.61 1.2527e+06
389.685 1.25529e+06
389.76 1.25789e+06
389.835 1.25789e+06
389.91 1.25789e+06
389.985 1.26047e+06
390.06 1.26306e+06
390.135 1.26306e+06
390.21 1.26306e+06
390.285 1.26564e+06
390.36 1.26823e+06
390.435 1.26823e+06
390.51 1.26823e+06
390.585 1.27081e+06
390.66 1.27339e+06
390.735 1.27339e+06
390.81 1.27339e+06
390.885 1.27597e+06
390.96 1.27855e+06
391.035 1.27855e+06
391.11 1.27855e+06
391.185 1.28112e+06
391.26 1.28369e+06
391.335 1.28369e+06
391.41 1.28369e+06
391.485 1.29181e+06
391.56 1.29994e+06
391.635 1.29994e+06
391.71 1.29994e+06
391.785 1.30805e+06
391.86 1.31616e+06
391.935 1.31616e+06
392.01 1.31616e+06
392.085 1.32426e+06
392.16 1.33236e+06
392.235 1.33236e+06
392.31 1.33236e+06
392.385 1.34044e+06
392.46 1.34853e+06
392.535 1.34853e+06
392.61 1.34853e+06
392.685 1.3566e+06
392.76 1.36468e+06
392.835 1.36468e+06
392.91 1.36468e+06
392.985 1.37274e+06
393.06 1.3808e+06
393.135 1.3808e+06
393.21 1.3808e+06
393.285 1.38885e+06
393.36 1.3969e+06
393.435 1.3969e+06
393.51 1.3969e+06
393.585 1.40494e+06
393.66 1.41297e+06
393.735 1.41297e+06
393.81 1.41297e+06
393.885 1.421e+06
393.96 1.42902e+06
394.035 1.42902e+06
394.11 1.42902e+06
394.185 1.43704e+06
394.26 1.44505e+06
394.335 1.44505e+06
394.41 1.44505e+06
394.485 1.44013e+06
394.56 1.43522e+06
394.635 1.43522e+06
394.71 1.43522e+06
394.785 1.4303e+06
394.86 1.42539e+06
394.935 1.42539e+06
395.01 1.42539e+06
395.085 1.42049e+06
395.16 1.41559e+06
395.235 1.41559e+06
395.31 1.41559e+06
395.385 1.41069e+06
395.46 1.4058e+06
395.535 1.4058e+06
395.61 1.4058e+06
395.685 1.40091e+06
395.76 1.39603e+06
395.835 1.39603e+06
395.91 1.39603e+06
395.985 1.39115e+06
396.06 1.38627e+06
396.135 1.38627e+06
396.21 1.38627e+06
396.285 1.38139e+06
396.36 1.37651e+06
396.435 1.37651e+06
396.51 1.37651e+06
396.585 1.37165e+06
396.66 1.36678e+06
396.735 1.36678e+06
396.81 1.36678e+06
396.885 1.36193e+06
396.96 1.35707e+06
397.035 1.35707e+06
397.11 1.35707e+06
397.185 1.35222e+06
397.26 1.34737e+06
397.335 1.34737e+06
397.41 1.34737e+06
397.485 1.34465e+06
397.56 1.34192e+06
397.635 1.34192e+06
397.71 1.34192e+06
397.785 1.33921e+06
397.86 1.33649e+06
397.935 1.33649e+06
398.01 1.33649e+06
398.085 1.33377e+06
398.16 1.33106e+06
398.235 1.33106e+06
398.31 1.33106e+06
398.385 1.32835e+06
398.46 1.32565e+06
398.535 1.32565e+06
398.61 1.32565e+06
398.685 1.32294e+06
398.76 1.32024e+06
