lam(nm) Flux (10^-20 J/s/m2/um)
324.735 1.66978e+06
324.81 1.66978e+06
324.885 1.65721e+06
324.96 1.64463e+06
325.035 1.64463e+06
325.11 1.64463e+06
325.185 1.63209e+06
325.26 1.61954e+06
325.335 1.61954e+06
325.41 1.61954e+06
325.485 1.63477e+06
325.56 1.65001e+06
325.635 1.65001e+06
325.71 1.65001e+06
325.785 1.66521e+06
325.86 1.68042e+06
325.935 1.68042e+06
326.01 1.68042e+06
326.085 1.6956e+06
326.16 1.71078e+06
326.235 1.71078e+06
326.31 1.71078e+06
326.385 1.72593e+06
326.46 1.74109e+06
326.535 1.74109e+06
326.61 1.74109e+06
326.685 1.75621e+06
326.76 1.77133e+06
326.835 1.77133e+06
326.91 1.77133e+06
326.985 1.78643e+06
327.06 1.80152e+06
327.135 1.80152e+06
327.21 1.80152e+06
327.285 1.81659e+06
327.36 1.83167e+06
327.435 1.83167e+06
327.51 1.83167e+06
327.585 1.84671e+06
327.66 1.86175e+06
327.735 1.86175e+06
327.81 1.86175e+06
327.885 1.87676e+06
327.96 1.89177e+06
328.035 1.89177e+06
328.11 1.89177e+06
328.185 1.90676e+06
328.26 1.92175e+06
328.335 1.92175e+06
328.41 1.92175e+06
328.485 1.91396e+06
328.56 1.90617e+06
328.635 1.90617e+06
328.71 1.90617e+06
328.785 1.8984e+06
328.86 1.89064e+06
328.935 1.89064e+06
329.01 1.89064e+06
329.085 1.88288e+06
329.16 1.87513e+06
329.235 1.87513e+06
329.31 1.87513e+06
329.385 1.86738e+06
329.46 1.85964e+06
329.535 1.85964e+06
329.61 1.85964e+06
329.685 1.85191e+06
329.76 1.84418e+06
329.835 1.84418e+06
329.91 1.84418e+06
329.985 1.83647e+06
330.06 1.82876e+06
330.135 1.82876e+06
330.21 1.82876e+06
330.285 1.82106e+06
330.36 1.81336e+06
330.435 1.81336e+06
330.51 1.81336e+06
330.585 1.80567e+06
330.66 1.79798e+06
330.735 1.79798e+06
330.81 1.79798e+06
330.885 1.79031e+06
330.96 1.78264e+06
331.035 1.78264e+06
331.11 1.78264e+06
331.185 1.77498e+06
331.26 1.76732e+06
331.335 1.76732e+06
331.41 1.76732e+06
331.485 1.76521e+06
331.56 1.7631e+06
331.635 1.7631e+06
331.71 1.7631e+06
331.785 1.76098e+06
331.86 1.75887e+06
331.935 1.75887e+06
332.01 1.75887e+06
332.085 1.75676e+06
332.16 1.75465e+06
332.235 1.75465e+06
332.31 1.75465e+06
332.385 1.75255e+06
332.46 1.75045e+06
332.535 1.75045e+06
332.61 1.75045e+06
332.685 1.74834e+06
332.76 1.74624e+06
332.835 1.74624e+06
332.91 1.74624e+06
332.985 1.74414e+06
333.06 1.74205e+06
333.135 1.74205e+06
333.21 1.74205e+06
333.285 1.73995e+06
333.36 1.73786e+06
333.435 1.73786e+06
333.51 1.73786e+06
333.585 1.73578e+06
333.66 1.73369e+06
333.735 1.73369e+06
333.81 1.73369e+06
333.885 1.7316e+06
333.96 1.72952e+06
334.035 1.72952e+06
334.11 1.72952e+06
334.185 1.72744e+06
334.26 1.72536e+06
334.335 1.72536e+06
334.41 1.72536e+06
334.485 1.70872e+06
334.56 1.69207e+06
334.635 1.69207e+06
334.71 1.69207e+06
334.785 1.67546e+06
334.86 1.65885e+06
334.935 1.65885e+06
335.01 1.65885e+06
335.085 1.64227e+06
335.16 1.62569e+06
335.235 1.62569e+06
335.31 1.62569e+06
335.385 1.60913e+06
335.46 1.59258e+06
335.535 1.59258e+06
335.61 1.59258e+06
335.685 1.57606e+06
335.76 1.55954e+06
335.835 1.55954e+06
335.91 1.55954e+06
335.985 1.54304e+06
336.06 1.52655e+06
336.135 1.52655e+06
336.21 1.52655e+06
336.285 1.51008e+06
336.36 1.49362e+06
336.435 1.49362e+06
336.51 1.49362e+06
336.585 1.47718e+06
336.66 1.46075e+06
336.735 1.46075e+06
336.81 1.46075e+06
336.885 1.44434e+06
336.96 1.42794e+06
337.035 1.42794e+06
337.11 1.42794e+06
337.185 1.41156e+06
337.26 1.39519e+06
337.335 1.39519e+06
337.41 1.39519e+06
337.485 1.41296e+06
337.56 1.43073e+06
337.635 1.43073e+06
337.71 1.43073e+06
337.785 1.44847e+06
337.86 1.46621e+06
337.935 1.46621e+06
338.01 1.46621e+06
338.085 1.48391e+06
338.16 1.50162e+06
338.235 1.50162e+06
338.31 1.50162e+06
338.385 1.5193e+06
338.46 1.53698e+06
338.535 1.53698e+06
338.61 1.53698e+06
338.685 1.55462e+06
338.76 1.57226e+06
338.835 1.57226e+06
338.91 1.57226e+06
338.985 1.58988e+06
339.06 1.60749e+06
339.135 1.60749e+06
339.21 1.60749e+06
339.285 1.62507e+06
339.36 1.64266e+06
339.435 1.64266e+06
339.51 1.64266e+06
339.585 1.66021e+06
339.66 1.67776e+06
339.735 1.67776e+06
339.81 1.67776e+06
339.885 1.69528e+06
339.96 1.7128e+06
340.035 1.7128e+06
340.11 1.7128e+06
340.185 1.73029e+06
340.26 1.74778e+06
340.335 1.74778e+06
340.41 1.74778e+06
340.485 1.74068e+06
340.56 1.73357e+06
340.635 1.73357e+06
340.71 1.73357e+06
340.785 1.72648e+06
340.86 1.71939e+06
340.935 1.71939e+06
341.01 1.71939e+06
341.085 1.7123e+06
341.16 1.70522e+06
341.235 1.70522e+06
341.31 1.70522e+06
341.385 1.69816e+06
341.46 1.69109e+06
341.535 1.69109e+06
341.61 1.69109e+06
341.685 1.68404e+06
341.76 1.67698e+06
341.835 1.67698e+06
341.91 1.67698e+06
341.985 1.66994e+06
342.06 1.6629e+06
342.135 1.6629e+06
342.21 1.6629e+06
342.285 1.65586e+06
342.36 1.64883e+06
342.435 1.64883e+06
342.51 1.64883e+06
342.585 1.64181e+06
342.66 1.6348e+06
342.735 1.6348e+06
342.81 1.6348e+06
342.885 1.62779e+06
342.96 1.62078e+06
343.035 1.62078e+06
343.11 1.62078e+06
343.185 1.61379e+06
343.26 1.6068e+06
343.335 1.6068e+06
343.41 1.6068e+06
343.485 1.60734e+06
343.56 1.60787e+06
343.635 1.60787e+06
343.71 1.60787e+06
343.785 1.60841e+06
343.86 1.60894e+06
343.935 1.60894e+06
344.01 1.60894e+06
344.085 1.60948e+06
344.16 1.61002e+06
344.235 1.61002e+06
344.31 1.61002e+06
344.385 1.61056e+06
344.46 1.61109e+06
344.535 1.61109e+06
344.61 1.61109e+06
344.685 1.61163e+06
344.76 1.61216e+06
344.835 1.61216e+06
344.91 1.61216e+06
344.985 1.61269e+06
345.06 1.61323e+06
345.135 1.61323e+06
345.21 1.61323e+06
345.285 1.61376e+06
345.36 1.61429e+06
345.435 1.61429e+06
345.51 1.61429e+06
345.585 1.61482e+06
345.66 1.61535e+06
345.735 1.61535e+06
345.81 1.61535e+06
345.885 1.61589e+06
345.96 1.61642e+06
346.035 1.61642e+06
346.11 1.61642e+06
346.185 1.61695e+06
346.26 1.61747e+06
346.335 1.61747e+06
346.41 1.61747e+06
346.485 1.61528e+06
346.56 1.61309e+06
346.635 1.61309e+06
346.71 1.61309e+06
346.785 1.6109e+06
346.86 1.60871e+06
346.935 1.60871e+06
347.01 1.60871e+06
347.085 1.60653e+06
347.16 1.60434e+06
347.235 1.60434e+06
347.31 1.60434e+06
347.385 1.60216e+06
347.46 1.59998e+06
347.535 1.59998e+06
347.61 1.59998e+06
347.685 1.5978e+06
347.76 1.59562e+06
347.835 1.59562e+06
347.91 1.59562e+06
347.985 1.59345e+06
348.06 1.59128e+06
348.135 1.59128e+06
348.21 1.59128e+06
348.285 1.5891e+06
348.36 1.58693e+06
348.435 1.58693e+06
348.51 1.58693e+06
348.585 1.58476e+06
348.66 1.58259e+06
348.735 1.58259e+06
348.81 1.58259e+06
348.885 1.58043e+06
348.96 1.57827e+06
349.035 1.57827e+06
349.11 1.57827e+06
349.185 1.57611e+06
349.26 1.57395e+06
349.335 1.57395e+06
349.41 1.57395e+06
349.485 1.53979e+06
349.56 1.50564e+06
349.635 1.50564e+06
349.71 1.50564e+06
349.785 1.47154e+06
349.86 1.43744e+06
349.935 1.43744e+06
350.01 1.43744e+06
350.085 1.4034e+06
350.16 1.36936e+06
350.235 1.36936e+06
350.31 1.36936e+06
350.385 1.33538e+06
350.46 1.3014e+06
350.535 1.3014e+06
350.61 1.3014e+06
350.685 1.26748e+06
350.76 1.23356e+06
350.835 1.23356e+06
350.91 1.23356e+06
350.985 1.19969e+06
351.06 1.16582e+06
351.135 1.16582e+06
351.21 1.16582e+06
351.285 1.13202e+06
351.36 1.09821e+06
351.435 1.09821e+06
351.51 1.09821e+06
351.585 1.06446e+06
351.66 1.03071e+06
351.735 1.03071e+06
351.81 1.03071e+06
351.885 997021
351.96 963328
352.035 963328
352.11 963328
352.185 929693
352.26 896059
352.335 896059
352.41 896059
352.485 925271
352.56 954483
352.635 954483
352.71 954483
352.785 983645
352.86 1.01281e+06
352.935 1.01281e+06
353.01 1.01281e+06
353.085 1.04192e+06
353.16 1.07103e+06
353.235 1.07103e+06
353.31 1.07103e+06
353.385 1.10009e+06
353.46 1.12916e+06
353.535 1.12916e+06
353.61 1.12916e+06
353.685 1.15817e+06
353.76 1.18718e+06
353.835 1.18718e+06
353.91 1.18718e+06
353.985 1.21615e+06
354.06 1.24511e+06
354.135 1.24511e+06
354.21 1.24511e+06
354.285 1.27403e+06
354.36 1.30294e+06
354.435 1.30294e+06
354.51 1.30294e+06
354.585 1.33181e+06
354.66 1.36067e+06
354.735 1.36067e+06
354.81 1.36067e+06
354.885 1.38949e+06
354.96 1.41831e+06
355.035 1.41831e+06
355.11 1.41831e+06
355.185 1.44708e+06
355.26 1.47585e+06
355.335 1.47585e+06
355.41 1.47585e+06
355.485 1.47039e+06
355.56 1.46493e+06
355.635 1.46493e+06
355.71 1.46493e+06
355.785 1.45948e+06
355.86 1.45403e+06
355.935 1.45403e+06
356.01 1.45403e+06
356.085 1.44859e+06
356.16 1.44315e+06
356.235 1.44315e+06
356.31 1.44315e+06
356.385 1.43771e+06
356.46 1.43227e+06
356.535 1.43227e+06
356.61 1.43227e+06
356.685 1.42685e+06
356.76 1.42143e+06
356.835 1.42143e+06
356.91 1.42143e+06
356.985 1.41602e+06
357.06 1.4106e+06
357.135 1.4106e+06
357.21 1.4106e+06
357.285 1.4052e+06
357.36 1.3998e+06
357.435 1.3998e+06
357.51 1.3998e+06
357.585 1.3944e+06
357.66 1.389e+06
357.735 1.389e+06
357.81 1.389e+06
357.885 1.38361e+06
357.96 1.37823e+06
358.035 1.37823e+06
358.11 1.37823e+06
358.185 1.37285e+06
358.26 1.36747e+06
358.335 1.36747e+06
358.41 1.36747e+06
358.485 1.3523e+06
358.56 1.33712e+06
358.635 1.33712e+06
358.71 1.33712e+06
358.785 1.32197e+06
358.86 1.30681e+06
358.935 1.30681e+06
359.01 1.30681e+06
359.085 1.29169e+06
359.16 1.27656e+06
359.235 1.27656e+06
359.31 1.27656e+06
359.385 1.26146e+06
359.46 1.24636e+06
359.535 1.24636e+06
359.61 1.24636e+06
359.685 1.23128e+06
359.76 1.21621e+06
359.835 1.21621e+06
359.91 1.21621e+06
359.985 1.20116e+06
360.06 1.18611e+06
360.135 1.18611e+06
360.21 1.18611e+06
360.285 1.17108e+06
360.36 1.15605e+06
360.435 1.15605e+06
360.51 1.15605e+06
360.585 1.14105e+06
360.66 1.12605e+06
360.735 1.12605e+06
360.81 1.12605e+06
360.885 1.11107e+06
360.96 1.0961e+06
361.035 1.0961e+06
361.11 1.0961e+06
361.185 1.08115e+06
361.26 1.0662e+06
361.335 1.0662e+06
361.41 1.0662e+06
361.485 1.05539e+06
361.56 1.04458e+06
361.635 1.04458e+06
361.71 1.04458e+06
361.785 1.03379e+06
361.86 1.023e+06
361.935 1.023e+06
362.01 1.023e+06
362.085 1.01222e+06
362.16 1.00145e+06
362.235 1.00145e+06
362.31 1.00145e+06
362.385 990692
362.46 979935
362.535 979935
362.61 979935
362.685 969194
362.76 958454
362.835 958454
362.91 958454
362.985 947734
363.06 937015
363.135 937015
363.21 937015
363.285 926314
363.36 915613
363.435 915613
363.51 915613
363.585 904928
363.66 894243
363.735 894243
363.81 894243
363.885 883574
363.96 872905
364.035 872905
364.11 872905
364.185 862254
364.26 851603
364.335 851603
364.41 851603
364.485 873508
364.56 895412
364.635 895412
364.71 895412
364.785 917281
364.86 939150
364.935 939150
365.01 939150
365.085 960982
365.16 982814
365.235 982814
365.31 982814
365.385 1.00461e+06
365.46 1.02641e+06
365.535 1.02641e+06
365.61 1.02641e+06
365.685 1.04817e+06
365.76 1.06993e+06
365.835 1.06993e+06
365.91 1.06993e+06
365.985 1.09166e+06
366.06 1.11338e+06
366.135 1.11338e+06
366.21 1.11338e+06
366.285 1.13507e+06
366.36 1.15676e+06
366.435 1.15676e+06
366.51 1.15676e+06
366.585 1.17842e+06
366.66 1.20007e+06
366.735 1.20007e+06
366.81 1.20007e+06
366.885 1.22169e+06
366.96 1.24331e+06
367.035 1.24331e+06
367.11 1.24331e+06
367.185 1.26489e+06
367.26 1.28647e+06
367.335 1.28647e+06
367.41 1.28647e+06
367.485 1.29437e+06
367.56 1.30226e+06
367.635 1.30226e+06
367.71 1.30226e+06
367.785 1.31015e+06
367.86 1.31803e+06
367.935 1.31803e+06
368.01 1.31803e+06
368.085 1.3259e+06
368.16 1.33377e+06
368.235 1.33377e+06
368.31 1.33377e+06
368.385 1.34163e+06
368.46 1.34949e+06
368.535 1.34949e+06
368.61 1.34949e+06
368.685 1.35734e+06
368.76 1.36518e+06
368.835 1.36518e+06
368.91 1.36518e+06
368.985 1.37301e+06
369.06 1.38084e+06
369.135 1.38084e+06
369.21 1.38084e+06
369.285 1.38866e+06
369.36 1.39648e+06
369.435 1.39648e+06
369.51 1.39648e+06
369.585 1.40429e+06
369.66 1.41209e+06
369.735 1.41209e+06
369.81 1.41209e+06
369.885 1.41989e+06
369.96 1.42768e+06
370.035 1.42768e+06
370.11 1.42768e+06
370.185 1.43547e+06
370.26 1.44325e+06
370.335 1.44325e+06
370.41 1.44325e+06
370.485 1.44275e+06
370.56 1.44226e+06
370.635 1.44226e+06
370.71 1.44226e+06
370.785 1.44176e+06
370.86 1.44126e+06
370.935 1.44126e+06
371.01 1.44126e+06
371.085 1.44077e+06
371.16 1.44028e+06
371.235 1.44028e+06
371.31 1.44028e+06
371.385 1.43978e+06
371.46 1.43929e+06
371.535 1.43929e+06
371.61 1.43929e+06
371.685 1.4388e+06
371.76 1.43831e+06
371.835 1.43831e+06
371.91 1.43831e+06
371.985 1.43781e+06
372.06 1.43732e+06
372.135 1.43732e+06
372.21 1.43732e+06
372.285 1.43683e+06
372.36 1.43634e+06
372.435 1.43634e+06
372.51 1.43634e+06
372.585 1.43585e+06
372.66 1.43535e+06
372.735 1.43535e+06
372.81 1.43535e+06
372.885 1.43486e+06
372.96 1.43437e+06
373.035 1.43437e+06
373.11 1.43437e+06
373.185 1.43389e+06
373.26 1.4334e+06
373.335 1.4334e+06
373.41 1.4334e+06
373.485 1.42991e+06
373.56 1.42641e+06
373.635 1.42641e+06
373.71 1.42641e+06
373.785 1.42293e+06
373.86 1.41944e+06
373.935 1.41944e+06
374.01 1.41944e+06
374.085 1.41596e+06
374.16 1.41247e+06
374.235 1.41247e+06
374.31 1.41247e+06
374.385 1.409e+06
374.46 1.40552e+06
374.535 1.40552e+06
374.61 1.40552e+06
374.685 1.40205e+06
374.76 1.39858e+06
374.835 1.39858e+06
374.91 1.39858e+06
374.985 1.39511e+06
375.06 1.39165e+06
375.135 1.39165e+06
375.21 1.39165e+06
375.285 1.38819e+06
375.36 1.38473e+06
375.435 1.38473e+06
375.51 1.38473e+06
375.585 1.38127e+06
375.66 1.37782e+06
375.735 1.37782e+06
375.81 1.37782e+06
375.885 1.37437e+06
375.96 1.37092e+06
376.035 1.37092e+06
376.11 1.37092e+06
376.185 1.36748e+06
376.26 1.36404e+06
376.335 1.36404e+06
376.41 1.36404e+06
376.485 1.36514e+06
376.56 1.36624e+06
376.635 1.36624e+06
376.71 1.36624e+06
376.785 1.36734e+06
376.86 1.36845e+06
376.935 1.36845e+06
377.01 1.36845e+06
377.085 1.36954e+06
377.16 1.37064e+06
377.235 1.37064e+06
377.31 1.37064e+06
377.385 1.37173e+06
377.46 1.37283e+06
377.535 1.37283e+06
377.61 1.37283e+06
377.685 1.37393e+06
377.76 1.37503e+06
377.835 1.37503e+06
377.91 1.37503e+06
377.985 1.37612e+06
378.06 1.37721e+06
378.135 1.37721e+06
378.21 1.37721e+06
378.285 1.37831e+06
378.36 1.3794e+06
378.435 1.3794e+06
378.51 1.3794e+06
378.585 1.38049e+06
378.66 1.38158e+06
378.735 1.38158e+06
378.81 1.38158e+06
378.885 1.38267e+06
378.96 1.38376e+06
379.035 1.38376e+06
379.11 1.38376e+06
379.185 1.38484e+06
379.26 1.38593e+06
379.335 1.38593e+06
379.41 1.38593e+06
379.485 1.38875e+06
379.56 1.39157e+06
379.635 1.39157e+06
379.71 1.39157e+06
379.785 1.39439e+06
379.86 1.39721e+06
379.935 1.39721e+06
380.01 1.39721e+06
380.085 1.40002e+06
380.16 1.40284e+06
380.235 1.40284e+06
380.31 1.40284e+06
380.385 1.40565e+06
380.46 1.40846e+06
380.535 1.40846e+06
380.61 1.40846e+06
380.685 1.41126e+06
380.76 1.41406e+06
380.835 1.41406e+06
380.91 1.41406e+06
380.985 1.41686e+06
381.06 1.41966e+06
381.135 1.41966e+06
381.21 1.41966e+06
381.285 1.42245e+06
381.36 1.42525e+06
381.435 1.42525e+06
381.51 1.42525e+06
381.585 1.42804e+06
381.66 1.43083e+06
381.735 1.43083e+06
381.81 1.43083e+06
381.885 1.43362e+06
381.96 1.43641e+06
382.035 1.43641e+06
382.11 1.43641e+06
382.185 1.43919e+06
382.26 1.44197e+06
382.335 1.44197e+06
382.41 1.44197e+06
382.485 1.44113e+06
382.56 1.44028e+06
382.635 1.44028e+06
382.71 1.44028e+06
382.785 1.43944e+06
382.86 1.4386e+06
382.935 1.4386e+06
383.01 1.4386e+06
383.085 1.43775e+06
383.16 1.43691e+06
383.235 1.43691e+06
383.31 1.43691e+06
383.385 1.43607e+06
383.46 1.43523e+06
383.535 1.43523e+06
383.61 1.43523e+06
383.685 1.43439e+06
383.76 1.43355e+06
383.835 1.43355e+06
383.91 1.43355e+06
383.985 1.43271e+06
384.06 1.43187e+06
384.135 1.43187e+06
384.21 1.43187e+06
384.285 1.43103e+06
384.36 1.4302e+06
384.435 1.4302e+06
384.51 1.4302e+06
384.585 1.42936e+06
384.66 1.42853e+06
384.735 1.42853e+06
384.81 1.42853e+06
384.885 1.42769e+06
384.96 1.42686e+06
385.035 1.42686e+06
385.11 1.42686e+06
385.185 1.42603e+06
385.26 1.42519e+06
385.335 1.42519e+06
385.41 1.42519e+06
385.485 1.41284e+06
385.56 1.40048e+06
385.635 1.40048e+06
385.71 1.40048e+06
385.785 1.38815e+06
385.86 1.37582e+06
385.935 1.37582e+06
386.01 1.37582e+06
386.085 1.3635e+06
386.16 1.35119e+06
386.235 1.35119e+06
386.31 1.35119e+06
386.385 1.33889e+06
386.46 1.32659e+06
386.535 1.32659e+06
386.61 1.32659e+06
386.685 1.31432e+06
386.76 1.30204e+06
386.835 1.30204e+06
386.91 1.30204e+06
386.985 1.28978e+06
387.06 1.27753e+06
387.135 1.27753e+06
387.21 1.27753e+06
387.285 1.26529e+06
387.36 1.25305e+06
387.435 1.25305e+06
387.51 1.25305e+06
387.585 1.24083e+06
387.66 1.22861e+06
387.735 1.22861e+06
387.81 1.22861e+06
387.885 1.21641e+06
387.96 1.20421e+06
388.035 1.20421e+06
388.11 1.20421e+06
388.185 1.19203e+06
388.26 1.17985e+06
388.335 1.17985e+06
388.41 1.17985e+06
388.485 1.18234e+06
388.56 1.18484e+06
388.635 1.18484e+06
388.71 1.18484e+06
388.785 1.18733e+06
388.86 1.18983e+06
388.935 1.18983e+06
389.01 1.18983e+06
389.085 1.19232e+06
389.16 1.19481e+06
389.235 1.19481e+06
389.31 1.19481e+06
389.385 1.1973e+06
389.46 1.19978e+06
389.535 1.19978e+06
389.61 1.19978e+06
389.685 1.20227e+06
389.76 1.20475e+06
389.835 1.20475e+06
389.91 1.20475e+06
389.985 1.20722e+06
390.06 1.2097e+06
390.135 1.2097e+06
390.21 1.2097e+06
390.285 1.21218e+06
390.36 1.21465e+06
390.435 1.21465e+06
390.51 1.21465e+06
390.585 1.21713e+06
390.66 1.2196e+06
390.735 1.2196e+06
390.81 1.2196e+06
390.885 1.22207e+06
390.96 1.22453e+06
391.035 1.22453e+06
391.11 1.22453e+06
391.185 1.227e+06
391.26 1.22946e+06
391.335 1.22946e+06
391.41 1.22946e+06
391.485 1.23724e+06
391.56 1.24502e+06
391.635 1.24502e+06
391.71 1.24502e+06
391.785 1.25279e+06
391.86 1.26056e+06
391.935 1.26056e+06
392.01 1.26056e+06
392.085 1.26832e+06
392.16 1.27607e+06
392.235 1.27607e+06
392.31 1.27607e+06
392.385 1.28382e+06
392.46 1.29156e+06
392.535 1.29156e+06
392.61 1.29156e+06
392.685 1.29929e+06
392.76 1.30703e+06
392.835 1.30703e+06
392.91 1.30703e+06
392.985 1.31475e+06
393.06 1.32247e+06
393.135 1.32247e+06
393.21 1.32247e+06
393.285 1.33018e+06
393.36 1.33789e+06
393.435 1.33789e+06
393.51 1.33789e+06
393.585 1.34559e+06
393.66 1.35328e+06
393.735 1.35328e+06
393.81 1.35328e+06
393.885 1.36097e+06
393.96 1.36866e+06
394.035 1.36866e+06
394.11 1.36866e+06
394.185 1.37633e+06
394.26 1.384e+06
394.335 1.384e+06
394.41 1.384e+06
394.485 1.37929e+06
394.56 1.37459e+06
394.635 1.37459e+06
394.71 1.37459e+06
394.785 1.36988e+06
394.86 1.36518e+06
394.935 1.36518e+06
395.01 1.36518e+06
395.085 1.36048e+06
395.16 1.35579e+06
395.235 1.35579e+06
395.31 1.35579e+06
395.385 1.3511e+06
395.46 1.34641e+06
395.535 1.34641e+06
395.61 1.34641e+06
395.685 1.34173e+06
395.76 1.33705e+06
395.835 1.33705e+06
395.91 1.33705e+06
395.985 1.33238e+06
396.06 1.3277e+06
396.135 1.3277e+06
396.21 1.3277e+06
396.285 1.32303e+06
396.36 1.31836e+06
396.435 1.31836e+06
396.51 1.31836e+06
396.585 1.3137e+06
396.66 1.30904e+06
396.735 1.30904e+06
396.81 1.30904e+06
396.885 1.30439e+06
396.96 1.29974e+06
397.035 1.29974e+06
397.11 1.29974e+06
397.185 1.29509e+06
397.26 1.29045e+06
397.335 1.29045e+06
397.41 1.29045e+06
397.485 1.28784e+06
397.56 1.28524e+06
397.635 1.28524e+06
397.71 1.28524e+06
397.785 1.28263e+06
397.86 1.28003e+06
397.935 1.28003e+06
398.01 1.28003e+06
398.085 1.27743e+06
398.16 1.27483e+06
398.235 1.27483e+06
398.31 1.27483e+06
398.385 1.27224e+06
398.46 1.26965e+06
398.535 1.26965e+06
398.61 1.26965e+06
398.685 1.26706e+06
398.76 1.26447e+06
398.835 1.26447e+06
398.91 1.26447e+06
398.985 1.26188e+06
