lam(nm) Flux (10^-20 J/s/m2/um)
324.735 2.43408e+06
324.81 2.43408e+06
324.885 2.41575e+06
324.96 2.39742e+06
325.035 2.39742e+06
325.11 2.39742e+06
325.185 2.37913e+06
325.26 2.36084e+06
325.335 2.36084e+06
325.41 2.36084e+06
325.485 2.38305e+06
325.56 2.40525e+06
325.635 2.40525e+06
325.71 2.40525e+06
325.785 2.42742e+06
325.86 2.44959e+06
325.935 2.44959e+06
326.01 2.44959e+06
326.085 2.47172e+06
326.16 2.49384e+06
326.235 2.49384e+06
326.31 2.49384e+06
326.385 2.51593e+06
326.46 2.53802e+06
326.535 2.53802e+06
326.61 2.53802e+06
326.685 2.56007e+06
326.76 2.58211e+06
326.835 2.58211e+06
326.91 2.58211e+06
326.985 2.60412e+06
327.06 2.62612e+06
327.135 2.62612e+06
327.21 2.62612e+06
327.285 2.64809e+06
327.36 2.67006e+06
327.435 2.67006e+06
327.51 2.67006e+06
327.585 2.69199e+06
327.66 2.71391e+06
327.735 2.71391e+06
327.81 2.71391e+06
327.885 2.7358e+06
327.96 2.75768e+06
328.035 2.75768e+06
328.11 2.75768e+06
328.185 2.77953e+06
328.26 2.80137e+06
328.335 2.80137e+06
328.41 2.80137e+06
328.485 2.79003e+06
328.56 2.77868e+06
328.635 2.77868e+06
328.71 2.77868e+06
328.785 2.76735e+06
328.86 2.75602e+06
328.935 2.75602e+06
329.01 2.75602e+06
329.085 2.74472e+06
329.16 2.73342e+06
329.235 2.73342e+06
329.31 2.73342e+06
329.385 2.72213e+06
329.46 2.71084e+06
329.535 2.71084e+06
329.61 2.71084e+06
329.685 2.69957e+06
329.76 2.68831e+06
329.835 2.68831e+06
329.91 2.68831e+06
329.985 2.67706e+06
330.06 2.66582e+06
330.135 2.66582e+06
330.21 2.66582e+06
330.285 2.6546e+06
330.36 2.64337e+06
330.435 2.64337e+06
330.51 2.64337e+06
330.585 2.63216e+06
330.66 2.62096e+06
330.735 2.62096e+06
330.81 2.62096e+06
330.885 2.60978e+06
330.96 2.59859e+06
331.035 2.59859e+06
331.11 2.59859e+06
331.185 2.58743e+06
331.26 2.57627e+06
331.335 2.57627e+06
331.41 2.57627e+06
331.485 2.57319e+06
331.56 2.57011e+06
331.635 2.57011e+06
331.71 2.57011e+06
331.785 2.56702e+06
331.86 2.56394e+06
331.935 2.56394e+06
332.01 2.56394e+06
332.085 2.56087e+06
332.16 2.5578e+06
332.235 2.5578e+06
332.31 2.5578e+06
332.385 2.55474e+06
332.46 2.55167e+06
332.535 2.55167e+06
332.61 2.55167e+06
332.685 2.5486e+06
332.76 2.54554e+06
332.835 2.54554e+06
332.91 2.54554e+06
332.985 2.54248e+06
333.06 2.53942e+06
333.135 2.53942e+06
333.21 2.53942e+06
333.285 2.53637e+06
333.36 2.53332e+06
333.435 2.53332e+06
333.51 2.53332e+06
333.585 2.53028e+06
333.66 2.52724e+06
333.735 2.52724e+06
333.81 2.52724e+06
333.885 2.5242e+06
333.96 2.52116e+06
334.035 2.52116e+06
334.11 2.52116e+06
334.185 2.51813e+06
334.26 2.5151e+06
334.335 2.5151e+06
334.41 2.5151e+06
334.485 2.49084e+06
334.56 2.46657e+06
334.635 2.46657e+06
334.71 2.46657e+06
334.785 2.44236e+06
334.86 2.41815e+06
334.935 2.41815e+06
335.01 2.41815e+06
335.085 2.39398e+06
335.16 2.3698e+06
335.235 2.3698e+06
335.31 2.3698e+06
335.385 2.34567e+06
335.46 2.32154e+06
335.535 2.32154e+06
335.61 2.32154e+06
335.685 2.29746e+06
335.76 2.27337e+06
335.835 2.27337e+06
335.91 2.27337e+06
335.985 2.24933e+06
336.06 2.22528e+06
336.135 2.22528e+06
336.21 2.22528e+06
336.285 2.20128e+06
336.36 2.17729e+06
336.435 2.17729e+06
336.51 2.17729e+06
336.585 2.15333e+06
336.66 2.12937e+06
336.735 2.12937e+06
336.81 2.12937e+06
336.885 2.10545e+06
336.96 2.08154e+06
337.035 2.08154e+06
337.11 2.08154e+06
337.185 2.05767e+06
337.26 2.0338e+06
337.335 2.0338e+06
337.41 2.0338e+06
337.485 2.0597e+06
337.56 2.0856e+06
337.635 2.0856e+06
337.71 2.0856e+06
337.785 2.11146e+06
337.86 2.13732e+06
337.935 2.13732e+06
338.01 2.13732e+06
338.085 2.16314e+06
338.16 2.18895e+06
338.235 2.18895e+06
338.31 2.18895e+06
338.385 2.21472e+06
338.46 2.24049e+06
338.535 2.24049e+06
338.61 2.24049e+06
338.685 2.26621e+06
338.76 2.29193e+06
338.835 2.29193e+06
338.91 2.29193e+06
338.985 2.3176e+06
339.06 2.34328e+06
339.135 2.34328e+06
339.21 2.34328e+06
339.285 2.36891e+06
339.36 2.39454e+06
339.435 2.39454e+06
339.51 2.39454e+06
339.585 2.42013e+06
339.66 2.44572e+06
339.735 2.44572e+06
339.81 2.44572e+06
339.885 2.47125e+06
339.96 2.49679e+06
340.035 2.49679e+06
340.11 2.49679e+06
340.185 2.52228e+06
340.26 2.54778e+06
340.335 2.54778e+06
340.41 2.54778e+06
340.485 2.53743e+06
340.56 2.52707e+06
340.635 2.52707e+06
340.71 2.52707e+06
340.785 2.51673e+06
340.86 2.50639e+06
340.935 2.50639e+06
341.01 2.50639e+06
341.085 2.49607e+06
341.16 2.48574e+06
341.235 2.48574e+06
341.31 2.48574e+06
341.385 2.47544e+06
341.46 2.46514e+06
341.535 2.46514e+06
341.61 2.46514e+06
341.685 2.45486e+06
341.76 2.44458e+06
341.835 2.44458e+06
341.91 2.44458e+06
341.985 2.43431e+06
342.06 2.42405e+06
342.135 2.42405e+06
342.21 2.42405e+06
342.285 2.41379e+06
342.36 2.40354e+06
342.435 2.40354e+06
342.51 2.40354e+06
342.585 2.39331e+06
342.66 2.38308e+06
342.735 2.38308e+06
342.81 2.38308e+06
342.885 2.37287e+06
342.96 2.36265e+06
343.035 2.36265e+06
343.11 2.36265e+06
343.185 2.35246e+06
343.26 2.34227e+06
343.335 2.34227e+06
343.41 2.34227e+06
343.485 2.34305e+06
343.56 2.34384e+06
343.635 2.34384e+06
343.71 2.34384e+06
343.785 2.34462e+06
343.86 2.3454e+06
343.935 2.3454e+06
344.01 2.3454e+06
344.085 2.34618e+06
344.16 2.34697e+06
344.235 2.34697e+06
344.31 2.34697e+06
344.385 2.34775e+06
344.46 2.34853e+06
344.535 2.34853e+06
344.61 2.34853e+06
344.685 2.34931e+06
344.76 2.35008e+06
344.835 2.35008e+06
344.91 2.35008e+06
344.985 2.35086e+06
345.06 2.35164e+06
345.135 2.35164e+06
345.21 2.35164e+06
345.285 2.35242e+06
345.36 2.35319e+06
345.435 2.35319e+06
345.51 2.35319e+06
345.585 2.35397e+06
345.66 2.35474e+06
345.735 2.35474e+06
345.81 2.35474e+06
345.885 2.35552e+06
345.96 2.3563e+06
346.035 2.3563e+06
346.11 2.3563e+06
346.185 2.35706e+06
346.26 2.35783e+06
346.335 2.35783e+06
346.41 2.35783e+06
346.485 2.35464e+06
346.56 2.35145e+06
346.635 2.35145e+06
346.71 2.35145e+06
346.785 2.34825e+06
346.86 2.34506e+06
346.935 2.34506e+06
347.01 2.34506e+06
347.085 2.34187e+06
347.16 2.33869e+06
347.235 2.33869e+06
347.31 2.33869e+06
347.385 2.33551e+06
347.46 2.33232e+06
347.535 2.33232e+06
347.61 2.33232e+06
347.685 2.32915e+06
347.76 2.32598e+06
347.835 2.32598e+06
347.91 2.32598e+06
347.985 2.32281e+06
348.06 2.31964e+06
348.135 2.31964e+06
348.21 2.31964e+06
348.285 2.31647e+06
348.36 2.3133e+06
348.435 2.3133e+06
348.51 2.3133e+06
348.585 2.31014e+06
348.66 2.30698e+06
348.735 2.30698e+06
348.81 2.30698e+06
348.885 2.30383e+06
348.96 2.30068e+06
349.035 2.30068e+06
349.11 2.30068e+06
349.185 2.29753e+06
349.26 2.29438e+06
349.335 2.29438e+06
349.41 2.29438e+06
349.485 2.24459e+06
349.56 2.19481e+06
349.635 2.19481e+06
349.71 2.19481e+06
349.785 2.1451e+06
349.86 2.0954e+06
349.935 2.0954e+06
350.01 2.0954e+06
350.085 2.04578e+06
350.16 1.99616e+06
350.235 1.99616e+06
350.31 1.99616e+06
350.385 1.94662e+06
350.46 1.89708e+06
350.535 1.89708e+06
350.61 1.89708e+06
350.685 1.84764e+06
350.76 1.79819e+06
350.835 1.79819e+06
350.91 1.79819e+06
350.985 1.74882e+06
351.06 1.69945e+06
351.135 1.69945e+06
351.21 1.69945e+06
351.285 1.65017e+06
351.36 1.60089e+06
351.435 1.60089e+06
351.51 1.60089e+06
351.585 1.55169e+06
351.66 1.5025e+06
351.735 1.5025e+06
351.81 1.5025e+06
351.885 1.45338e+06
351.96 1.40427e+06
352.035 1.40427e+06
352.11 1.40427e+06
352.185 1.35524e+06
352.26 1.30621e+06
352.335 1.30621e+06
352.41 1.30621e+06
352.485 1.34879e+06
352.56 1.39137e+06
352.635 1.39137e+06
352.71 1.39137e+06
352.785 1.43388e+06
352.86 1.47639e+06
352.935 1.47639e+06
353.01 1.47639e+06
353.085 1.51883e+06
353.16 1.56126e+06
353.235 1.56126e+06
353.31 1.56126e+06
353.385 1.60363e+06
353.46 1.646e+06
353.535 1.646e+06
353.61 1.646e+06
353.685 1.68829e+06
353.76 1.73058e+06
353.835 1.73058e+06
353.91 1.73058e+06
353.985 1.77281e+06
354.06 1.81503e+06
354.135 1.81503e+06
354.21 1.81503e+06
354.285 1.85718e+06
354.36 1.89933e+06
354.435 1.89933e+06
354.51 1.89933e+06
354.585 1.94141e+06
354.66 1.98349e+06
354.735 1.98349e+06
354.81 1.98349e+06
354.885 2.02549e+06
354.96 2.0675e+06
355.035 2.0675e+06
355.11 2.0675e+06
355.185 2.10944e+06
355.26 2.15138e+06
355.335 2.15138e+06
355.41 2.15138e+06
355.485 2.14342e+06
355.56 2.13546e+06
355.635 2.13546e+06
355.71 2.13546e+06
355.785 2.12752e+06
355.86 2.11957e+06
355.935 2.11957e+06
356.01 2.11957e+06
356.085 2.11164e+06
356.16 2.10371e+06
356.235 2.10371e+06
356.31 2.10371e+06
356.385 2.09578e+06
356.46 2.08786e+06
356.535 2.08786e+06
356.61 2.08786e+06
356.685 2.07996e+06
356.76 2.07205e+06
356.835 2.07205e+06
356.91 2.07205e+06
356.985 2.06416e+06
357.06 2.05627e+06
357.135 2.05627e+06
357.21 2.05627e+06
357.285 2.0484e+06
357.36 2.04052e+06
357.435 2.04052e+06
357.51 2.04052e+06
357.585 2.03265e+06
357.66 2.02478e+06
357.735 2.02478e+06
357.81 2.02478e+06
357.885 2.01693e+06
357.96 2.00907e+06
358.035 2.00907e+06
358.11 2.00907e+06
358.185 2.00124e+06
358.26 1.9934e+06
358.335 1.9934e+06
358.41 1.9934e+06
358.485 1.97127e+06
358.56 1.94915e+06
358.635 1.94915e+06
358.71 1.94915e+06
358.785 1.92706e+06
358.86 1.90498e+06
358.935 1.90498e+06
359.01 1.90498e+06
359.085 1.88293e+06
359.16 1.86088e+06
359.235 1.86088e+06
359.31 1.86088e+06
359.385 1.83886e+06
359.46 1.81685e+06
359.535 1.81685e+06
359.61 1.81685e+06
359.685 1.79487e+06
359.76 1.77289e+06
359.835 1.77289e+06
359.91 1.77289e+06
359.985 1.75096e+06
360.06 1.72902e+06
360.135 1.72902e+06
360.21 1.72902e+06
360.285 1.70711e+06
360.36 1.6852e+06
360.435 1.6852e+06
360.51 1.6852e+06
360.585 1.66334e+06
360.66 1.64147e+06
360.735 1.64147e+06
360.81 1.64147e+06
360.885 1.61964e+06
360.96 1.59781e+06
361.035 1.59781e+06
361.11 1.59781e+06
361.185 1.57601e+06
361.26 1.55422e+06
361.335 1.55422e+06
361.41 1.55422e+06
361.485 1.53846e+06
361.56 1.52271e+06
361.635 1.52271e+06
361.71 1.52271e+06
361.785 1.50698e+06
361.86 1.49124e+06
361.935 1.49124e+06
362.01 1.49124e+06
362.085 1.47554e+06
362.16 1.45984e+06
362.235 1.45984e+06
362.31 1.45984e+06
362.385 1.44416e+06
362.46 1.42847e+06
362.535 1.42847e+06
362.61 1.42847e+06
362.685 1.41282e+06
362.76 1.39716e+06
362.835 1.39716e+06
362.91 1.39716e+06
362.985 1.38154e+06
363.06 1.36591e+06
363.135 1.36591e+06
363.21 1.36591e+06
363.285 1.35031e+06
363.36 1.33471e+06
363.435 1.33471e+06
363.51 1.33471e+06
363.585 1.31914e+06
363.66 1.30356e+06
363.735 1.30356e+06
363.81 1.30356e+06
363.885 1.28801e+06
363.96 1.27245e+06
364.035 1.27245e+06
364.11 1.27245e+06
364.185 1.25693e+06
364.26 1.2414e+06
364.335 1.2414e+06
364.41 1.2414e+06
364.485 1.27333e+06
364.56 1.30526e+06
364.635 1.30526e+06
364.71 1.30526e+06
364.785 1.33714e+06
364.86 1.36902e+06
364.935 1.36902e+06
365.01 1.36902e+06
365.085 1.40085e+06
365.16 1.43267e+06
365.235 1.43267e+06
365.31 1.43267e+06
365.385 1.46445e+06
365.46 1.49622e+06
365.535 1.49622e+06
365.61 1.49622e+06
365.685 1.52794e+06
365.76 1.55967e+06
365.835 1.55967e+06
365.91 1.55967e+06
365.985 1.59134e+06
366.06 1.62301e+06
366.135 1.62301e+06
366.21 1.62301e+06
366.285 1.65462e+06
366.36 1.68624e+06
366.435 1.68624e+06
366.51 1.68624e+06
366.585 1.7178e+06
366.66 1.74937e+06
366.735 1.74937e+06
366.81 1.74937e+06
366.885 1.78088e+06
366.96 1.8124e+06
367.035 1.8124e+06
367.11 1.8124e+06
367.185 1.84386e+06
367.26 1.87532e+06
367.335 1.87532e+06
367.41 1.87532e+06
367.485 1.88683e+06
367.56 1.89834e+06
367.635 1.89834e+06
367.71 1.89834e+06
367.785 1.90984e+06
367.86 1.92133e+06
367.935 1.92133e+06
368.01 1.92133e+06
368.085 1.9328e+06
368.16 1.94427e+06
368.235 1.94427e+06
368.31 1.94427e+06
368.385 1.95573e+06
368.46 1.96718e+06
368.535 1.96718e+06
368.61 1.96718e+06
368.685 1.97862e+06
368.76 1.99006e+06
368.835 1.99006e+06
368.91 1.99006e+06
368.985 2.00147e+06
369.06 2.01289e+06
369.135 2.01289e+06
369.21 2.01289e+06
369.285 2.02429e+06
369.36 2.03569e+06
369.435 2.03569e+06
369.51 2.03569e+06
369.585 2.04707e+06
369.66 2.05844e+06
369.735 2.05844e+06
369.81 2.05844e+06
369.885 2.06981e+06
369.96 2.08117e+06
370.035 2.08117e+06
370.11 2.08117e+06
370.185 2.09251e+06
370.26 2.10386e+06
370.335 2.10386e+06
370.41 2.10386e+06
370.485 2.10313e+06
370.56 2.10241e+06
370.635 2.10241e+06
370.71 2.10241e+06
370.785 2.10169e+06
370.86 2.10096e+06
370.935 2.10096e+06
371.01 2.10096e+06
371.085 2.10024e+06
371.16 2.09953e+06
371.235 2.09953e+06
371.31 2.09953e+06
371.385 2.09881e+06
371.46 2.09809e+06
371.535 2.09809e+06
371.61 2.09809e+06
371.685 2.09737e+06
371.76 2.09665e+06
371.835 2.09665e+06
371.91 2.09665e+06
371.985 2.09594e+06
372.06 2.09522e+06
372.135 2.09522e+06
372.21 2.09522e+06
372.285 2.0945e+06
372.36 2.09379e+06
372.435 2.09379e+06
372.51 2.09379e+06
372.585 2.09307e+06
372.66 2.09235e+06
372.735 2.09235e+06
372.81 2.09235e+06
372.885 2.09164e+06
372.96 2.09092e+06
373.035 2.09092e+06
373.11 2.09092e+06
373.185 2.09021e+06
373.26 2.0895e+06
373.335 2.0895e+06
373.41 2.0895e+06
373.485 2.08441e+06
373.56 2.07931e+06
373.635 2.07931e+06
373.71 2.07931e+06
373.785 2.07423e+06
373.86 2.06915e+06
373.935 2.06915e+06
374.01 2.06915e+06
374.085 2.06408e+06
374.16 2.059e+06
374.235 2.059e+06
374.31 2.059e+06
374.385 2.05393e+06
374.46 2.04886e+06
374.535 2.04886e+06
374.61 2.04886e+06
374.685 2.0438e+06
374.76 2.03875e+06
374.835 2.03875e+06
374.91 2.03875e+06
374.985 2.03369e+06
375.06 2.02863e+06
375.135 2.02863e+06
375.21 2.02863e+06
375.285 2.02359e+06
375.36 2.01855e+06
375.435 2.01855e+06
375.51 2.01855e+06
375.585 2.01352e+06
375.66 2.00848e+06
375.735 2.00848e+06
375.81 2.00848e+06
375.885 2.00345e+06
375.96 1.99842e+06
376.035 1.99842e+06
376.11 1.99842e+06
376.185 1.9934e+06
376.26 1.98839e+06
376.335 1.98839e+06
376.41 1.98839e+06
376.485 1.98999e+06
376.56 1.9916e+06
376.635 1.9916e+06
376.71 1.9916e+06
376.785 1.99321e+06
376.86 1.99482e+06
376.935 1.99482e+06
377.01 1.99482e+06
377.085 1.99642e+06
377.16 1.99801e+06
377.235 1.99801e+06
377.31 1.99801e+06
377.385 1.99961e+06
377.46 2.00121e+06
377.535 2.00121e+06
377.61 2.00121e+06
377.685 2.00281e+06
377.76 2.00441e+06
377.835 2.00441e+06
377.91 2.00441e+06
377.985 2.006e+06
378.06 2.0076e+06
378.135 2.0076e+06
378.21 2.0076e+06
378.285 2.00919e+06
378.36 2.01078e+06
378.435 2.01078e+06
378.51 2.01078e+06
378.585 2.01237e+06
378.66 2.01397e+06
378.735 2.01397e+06
378.81 2.01397e+06
378.885 2.01555e+06
378.96 2.01713e+06
379.035 2.01713e+06
379.11 2.01713e+06
379.185 2.01872e+06
379.26 2.02031e+06
379.335 2.02031e+06
379.41 2.02031e+06
379.485 2.02442e+06
379.56 2.02853e+06
379.635 2.02853e+06
379.71 2.02853e+06
379.785 2.03264e+06
379.86 2.03675e+06
379.935 2.03675e+06
380.01 2.03675e+06
380.085 2.04085e+06
380.16 2.04495e+06
380.235 2.04495e+06
380.31 2.04495e+06
380.385 2.04905e+06
380.46 2.05314e+06
380.535 2.05314e+06
380.61 2.05314e+06
380.685 2.05723e+06
380.76 2.06131e+06
380.835 2.06131e+06
380.91 2.06131e+06
380.985 2.06539e+06
381.06 2.06947e+06
381.135 2.06947e+06
381.21 2.06947e+06
381.285 2.07354e+06
381.36 2.07762e+06
381.435 2.07762e+06
381.51 2.07762e+06
381.585 2.08169e+06
381.66 2.08576e+06
381.735 2.08576e+06
381.81 2.08576e+06
381.885 2.08982e+06
381.96 2.09388e+06
382.035 2.09388e+06
382.11 2.09388e+06
382.185 2.09794e+06
382.26 2.102e+06
382.335 2.102e+06
382.41 2.102e+06
382.485 2.10076e+06
382.56 2.09953e+06
382.635 2.09953e+06
382.71 2.09953e+06
382.785 2.0983e+06
382.86 2.09707e+06
382.935 2.09707e+06
383.01 2.09707e+06
383.085 2.09585e+06
383.16 2.09462e+06
383.235 2.09462e+06
383.31 2.09462e+06
383.385 2.09339e+06
383.46 2.09217e+06
383.535 2.09217e+06
383.61 2.09217e+06
383.685 2.09094e+06
383.76 2.08972e+06
383.835 2.08972e+06
383.91 2.08972e+06
383.985 2.08849e+06
384.06 2.08727e+06
384.135 2.08727e+06
384.21 2.08727e+06
384.285 2.08605e+06
384.36 2.08483e+06
384.435 2.08483e+06
384.51 2.08483e+06
384.585 2.08362e+06
384.66 2.0824e+06
384.735 2.0824e+06
384.81 2.0824e+06
384.885 2.08118e+06
384.96 2.07997e+06
385.035 2.07997e+06
385.11 2.07997e+06
385.185 2.07875e+06
385.26 2.07754e+06
385.335 2.07754e+06
385.41 2.07754e+06
385.485 2.05953e+06
385.56 2.04152e+06
385.635 2.04152e+06
385.71 2.04152e+06
385.785 2.02354e+06
385.86 2.00556e+06
385.935 2.00556e+06
386.01 2.00556e+06
386.085 1.98761e+06
386.16 1.96966e+06
386.235 1.96966e+06
386.31 1.96966e+06
386.385 1.95173e+06
386.46 1.93381e+06
386.535 1.93381e+06
386.61 1.93381e+06
386.685 1.91591e+06
386.76 1.89802e+06
386.835 1.89802e+06
386.91 1.89802e+06
386.985 1.88015e+06
387.06 1.86228e+06
387.135 1.86228e+06
387.21 1.86228e+06
387.285 1.84444e+06
387.36 1.8266e+06
387.435 1.8266e+06
387.51 1.8266e+06
387.585 1.80879e+06
387.66 1.79098e+06
387.735 1.79098e+06
387.81 1.79098e+06
387.885 1.77319e+06
387.96 1.7554e+06
388.035 1.7554e+06
388.11 1.7554e+06
388.185 1.73765e+06
388.26 1.71989e+06
388.335 1.71989e+06
388.41 1.71989e+06
388.485 1.72353e+06
388.56 1.72717e+06
388.635 1.72717e+06
388.71 1.72717e+06
388.785 1.73081e+06
388.86 1.73444e+06
388.935 1.73444e+06
389.01 1.73444e+06
389.085 1.73807e+06
389.16 1.7417e+06
389.235 1.7417e+06
389.31 1.7417e+06
389.385 1.74533e+06
389.46 1.74895e+06
389.535 1.74895e+06
389.61 1.74895e+06
389.685 1.75257e+06
389.76 1.75619e+06
389.835 1.75619e+06
389.91 1.75619e+06
389.985 1.7598e+06
390.06 1.76341e+06
390.135 1.76341e+06
390.21 1.76341e+06
390.285 1.76702e+06
390.36 1.77063e+06
390.435 1.77063e+06
390.51 1.77063e+06
390.585 1.77423e+06
390.66 1.77784e+06
390.735 1.77784e+06
390.81 1.77784e+06
390.885 1.78144e+06
390.96 1.78503e+06
391.035 1.78503e+06
391.11 1.78503e+06
391.185 1.78862e+06
391.26 1.79221e+06
391.335 1.79221e+06
391.41 1.79221e+06
391.485 1.80355e+06
391.56 1.8149e+06
391.635 1.8149e+06
391.71 1.8149e+06
391.785 1.82622e+06
391.86 1.83755e+06
391.935 1.83755e+06
392.01 1.83755e+06
392.085 1.84886e+06
392.16 1.86016e+06
392.235 1.86016e+06
392.31 1.86016e+06
392.385 1.87145e+06
392.46 1.88274e+06
392.535 1.88274e+06
392.61 1.88274e+06
392.685 1.89401e+06
392.76 1.90529e+06
392.835 1.90529e+06
392.91 1.90529e+06
392.985 1.91654e+06
393.06 1.9278e+06
393.135 1.9278e+06
393.21 1.9278e+06
393.285 1.93904e+06
393.36 1.95027e+06
393.435 1.95027e+06
393.51 1.95027e+06
393.585 1.96149e+06
393.66 1.97271e+06
393.735 1.97271e+06
393.81 1.97271e+06
393.885 1.98392e+06
393.96 1.99512e+06
394.035 1.99512e+06
394.11 1.99512e+06
394.185 2.00631e+06
394.26 2.01749e+06
394.335 2.01749e+06
394.41 2.01749e+06
394.485 2.01063e+06
394.56 2.00377e+06
394.635 2.00377e+06
394.71 2.00377e+06
394.785 1.99691e+06
394.86 1.99005e+06
394.935 1.99005e+06
395.01 1.99005e+06
395.085 1.98321e+06
395.16 1.97636e+06
395.235 1.97636e+06
395.31 1.97636e+06
395.385 1.96953e+06
395.46 1.9627e+06
395.535 1.9627e+06
395.61 1.9627e+06
395.685 1.95587e+06
395.76 1.94905e+06
395.835 1.94905e+06
395.91 1.94905e+06
395.985 1.94224e+06
396.06 1.93543e+06
396.135 1.93543e+06
396.21 1.93543e+06
396.285 1.92862e+06
396.36 1.92181e+06
396.435 1.92181e+06
396.51 1.92181e+06
396.585 1.91502e+06
396.66 1.90823e+06
396.735 1.90823e+06
396.81 1.90823e+06
396.885 1.90144e+06
396.96 1.89466e+06
397.035 1.89466e+06
397.11 1.89466e+06
397.185 1.88789e+06
397.26 1.88112e+06
397.335 1.88112e+06
397.41 1.88112e+06
397.485 1.87732e+06
397.56 1.87352e+06
397.635 1.87352e+06
397.71 1.87352e+06
397.785 1.86973e+06
397.86 1.86593e+06
397.935 1.86593e+06
398.01 1.86593e+06
398.085 1.86214e+06
