lam(nm) Flux (10^-20 J/s/m2/um)
304.395 1.56919e+06
304.545 1.55515e+06
304.695 1.55515e+06
304.845 1.55515e+06
304.995 1.55515e+06
305.145 1.55515e+06
305.295 1.55515e+06
305.445 1.5133e+06
305.595 1.47145e+06
305.745 1.47145e+06
305.895 1.47145e+06
306.045 1.47145e+06
306.195 1.47145e+06
306.345 1.43855e+06
306.495 1.40566e+06
306.645 1.40566e+06
306.795 1.40566e+06
306.945 1.40566e+06
307.095 1.40566e+06
307.245 1.40566e+06
307.395 1.33455e+06
307.545 1.26344e+06
307.695 1.26344e+06
307.845 1.26344e+06
307.995 1.26344e+06
308.145 1.26344e+06
308.295 1.26344e+06
308.445 1.20758e+06
308.595 1.15172e+06
308.745 1.15172e+06
308.895 1.15172e+06
309.045 1.15172e+06
309.195 1.15172e+06
309.345 1.24389e+06
309.495 1.33605e+06
309.645 1.33605e+06
309.795 1.33605e+06
309.945 1.33605e+06
310.095 1.33605e+06
310.245 1.33605e+06
310.395 1.51754e+06
310.545 1.69904e+06
310.695 1.69904e+06
310.845 1.69904e+06
310.995 1.69904e+06
311.145 1.69904e+06
311.295 1.69904e+06
311.445 1.61643e+06
311.595 1.53383e+06
311.745 1.53383e+06
311.895 1.53383e+06
312.045 1.53383e+06
312.195 1.53383e+06
312.345 1.52499e+06
312.495 1.51616e+06
312.645 1.51616e+06
312.795 1.51616e+06
312.945 1.51616e+06
313.095 1.51616e+06
313.245 1.51616e+06
313.395 1.52538e+06
313.545 1.53461e+06
313.695 1.53461e+06
313.845 1.53461e+06
313.995 1.53461e+06
314.145 1.53461e+06
314.295 1.53461e+06
314.445 1.50805e+06
314.595 1.48148e+06
314.745 1.48148e+06
314.895 1.48148e+06
315.045 1.48148e+06
315.195 1.48148e+06
315.345 1.45668e+06
315.495 1.43187e+06
315.645 1.43187e+06
315.795 1.43187e+06
315.945 1.43187e+06
316.095 1.43187e+06
316.245 1.43187e+06
316.395 1.46312e+06
316.545 1.49437e+06
316.695 1.49437e+06
316.845 1.49437e+06
316.995 1.49437e+06
317.145 1.49437e+06
317.295 1.49437e+06
317.445 1.46428e+06
317.595 1.43419e+06
317.745 1.43419e+06
317.895 1.43419e+06
318.045 1.43419e+06
318.195 1.43419e+06
318.345 1.38627e+06
318.495 1.33835e+06
318.645 1.33835e+06
318.795 1.33835e+06
318.945 1.33835e+06
319.095 1.33835e+06
319.245 1.33835e+06
319.395 1.36625e+06
319.545 1.39415e+06
319.695 1.39415e+06
319.845 1.39415e+06
319.995 1.39415e+06
320.145 1.39415e+06
320.295 1.39415e+06
320.445 1.35814e+06
320.595 1.32213e+06
320.745 1.32213e+06
320.895 1.32213e+06
321.045 1.32213e+06
321.195 1.32213e+06
321.345 1.30691e+06
321.495 1.29168e+06
321.645 1.29168e+06
321.795 1.29168e+06
321.945 1.29168e+06
322.095 1.29168e+06
322.245 1.29168e+06
322.395 1.33961e+06
322.545 1.38755e+06
322.695 1.38755e+06
322.845 1.38755e+06
322.995 1.38755e+06
323.145 1.38755e+06
323.295 1.38755e+06
323.445 1.35492e+06
323.595 1.32228e+06
323.745 1.32228e+06
323.895 1.32228e+06
324.045 1.32228e+06
324.195 1.32228e+06
324.345 1.32495e+06
324.495 1.32762e+06
324.645 1.32762e+06
324.795 1.32762e+06
324.945 1.32762e+06
325.095 1.32762e+06
325.245 1.32762e+06
325.395 1.3315e+06
325.545 1.33537e+06
325.695 1.33537e+06
325.845 1.33537e+06
325.995 1.33537e+06
326.145 1.33537e+06
326.295 1.33537e+06
326.445 1.36817e+06
326.595 1.40098e+06
326.745 1.40098e+06
326.895 1.40098e+06
327.045 1.40098e+06
327.195 1.40098e+06
327.345 1.42227e+06
327.495 1.44355e+06
327.645 1.44355e+06
327.795 1.44355e+06
327.945 1.44355e+06
328.095 1.44355e+06
328.245 1.44355e+06
328.395 1.46102e+06
328.545 1.47848e+06
328.695 1.47848e+06
328.845 1.47848e+06
328.995 1.47848e+06
329.145 1.47848e+06
329.295 1.47848e+06
329.445 1.46616e+06
329.595 1.45384e+06
329.745 1.45384e+06
329.895 1.45384e+06
330.045 1.45384e+06
330.195 1.45384e+06
330.345 1.38077e+06
330.495 1.30771e+06
330.645 1.30771e+06
330.795 1.30771e+06
330.945 1.30771e+06
331.095 1.30771e+06
331.245 1.30771e+06
331.395 1.34666e+06
331.545 1.38561e+06
331.695 1.38561e+06
331.845 1.38561e+06
331.995 1.38561e+06
332.145 1.38561e+06
332.295 1.38561e+06
332.445 1.39774e+06
332.595 1.40987e+06
332.745 1.40987e+06
332.895 1.40987e+06
333.045 1.40987e+06
333.195 1.40987e+06
333.345 1.33872e+06
333.495 1.26757e+06
333.645 1.26757e+06
333.795 1.26757e+06
333.945 1.26757e+06
334.095 1.26757e+06
334.245 1.26757e+06
334.395 1.29576e+06
334.545 1.32395e+06
334.695 1.32395e+06
334.845 1.32395e+06
334.995 1.32395e+06
335.145 1.32395e+06
335.295 1.32395e+06
335.445 1.35276e+06
335.595 1.38157e+06
335.745 1.38157e+06
335.895 1.38157e+06
336.045 1.38157e+06
336.195 1.38157e+06
336.345 1.36275e+06
336.495 1.34394e+06
336.645 1.34394e+06
336.795 1.34394e+06
336.945 1.34394e+06
337.095 1.34394e+06
337.245 1.34394e+06
337.395 1.31636e+06
337.545 1.28879e+06
337.695 1.28879e+06
337.845 1.28879e+06
337.995 1.28879e+06
338.145 1.28879e+06
338.295 1.28879e+06
338.445 1.30486e+06
338.595 1.32093e+06
338.745 1.32093e+06
338.895 1.32093e+06
339.045 1.32093e+06
339.195 1.32093e+06
339.345 1.32071e+06
339.495 1.32048e+06
339.645 1.32048e+06
339.795 1.32048e+06
339.945 1.32048e+06
340.095 1.32048e+06
340.245 1.32048e+06
340.395 1.31411e+06
340.545 1.30773e+06
340.695 1.30773e+06
340.845 1.30773e+06
340.995 1.30773e+06
341.145 1.30773e+06
341.295 1.30773e+06
341.445 1.29517e+06
341.595 1.28261e+06
341.745 1.28261e+06
341.895 1.28261e+06
342.045 1.28261e+06
342.195 1.28261e+06
342.345 1.26474e+06
342.495 1.24688e+06
342.645 1.24688e+06
342.795 1.24688e+06
342.945 1.24688e+06
343.095 1.24688e+06
343.245 1.24688e+06
343.395 1.29019e+06
343.545 1.33351e+06
343.695 1.33351e+06
343.845 1.33351e+06
343.995 1.33351e+06
344.145 1.33351e+06
344.295 1.33351e+06
344.445 1.31144e+06
344.595 1.28938e+06
344.745 1.28938e+06
344.895 1.28938e+06
345.045 1.28938e+06
345.195 1.28938e+06
345.345 1.34727e+06
345.495 1.40516e+06
345.645 1.40516e+06
345.795 1.40516e+06
345.945 1.40516e+06
346.095 1.40516e+06
346.245 1.40516e+06
346.395 1.38121e+06
346.545 1.35726e+06
346.695 1.35726e+06
346.845 1.35726e+06
346.995 1.35726e+06
347.145 1.35726e+06
347.295 1.35726e+06
347.445 1.33348e+06
347.595 1.3097e+06
347.745 1.3097e+06
347.895 1.3097e+06
348.045 1.3097e+06
348.195 1.3097e+06
348.345 1.31597e+06
348.495 1.32224e+06
348.645 1.32224e+06
348.795 1.32224e+06
348.945 1.32224e+06
349.095 1.32224e+06
349.245 1.32224e+06
349.395 1.33485e+06
349.545 1.34746e+06
349.695 1.34746e+06
349.845 1.34746e+06
349.995 1.34746e+06
350.145 1.34746e+06
350.295 1.34746e+06
350.445 1.37551e+06
350.595 1.40357e+06
350.745 1.40357e+06
350.895 1.40357e+06
351.045 1.40357e+06
351.195 1.40357e+06
351.345 1.35035e+06
351.495 1.29713e+06
351.645 1.29713e+06
351.795 1.29713e+06
351.945 1.29713e+06
352.095 1.29713e+06
352.245 1.29713e+06
352.395 1.29305e+06
352.545 1.28898e+06
352.695 1.28898e+06
352.845 1.28898e+06
352.995 1.28898e+06
353.145 1.28898e+06
353.295 1.28898e+06
353.445 1.26751e+06
353.595 1.24604e+06
353.745 1.24604e+06
353.895 1.24604e+06
354.045 1.24604e+06
354.195 1.24604e+06
354.345 1.17471e+06
354.495 1.10338e+06
354.645 1.10338e+06
354.795 1.10338e+06
354.945 1.10338e+06
355.095 1.10338e+06
355.245 1.10338e+06
355.395 1.16701e+06
355.545 1.23065e+06
355.695 1.23065e+06
355.845 1.23065e+06
355.995 1.23065e+06
356.145 1.23065e+06
356.295 1.23065e+06
356.445 1.24872e+06
356.595 1.26679e+06
356.745 1.26679e+06
356.895 1.26679e+06
357.045 1.26679e+06
357.195 1.26679e+06
357.345 1.25195e+06
357.495 1.2371e+06
357.645 1.2371e+06
357.795 1.2371e+06
357.945 1.2371e+06
358.095 1.2371e+06
358.245 1.2371e+06
358.395 1.22936e+06
358.545 1.22161e+06
358.695 1.22161e+06
358.845 1.22161e+06
358.995 1.22161e+06
359.145 1.22161e+06
359.295 1.22161e+06
359.445 1.23714e+06
359.595 1.25266e+06
359.745 1.25266e+06
359.895 1.25266e+06
360.045 1.25266e+06
360.195 1.25266e+06
360.345 1.25308e+06
360.495 1.2535e+06
360.645 1.2535e+06
360.795 1.2535e+06
360.945 1.2535e+06
361.095 1.2535e+06
361.245 1.2535e+06
361.395 1.24269e+06
361.545 1.23187e+06
361.695 1.23187e+06
361.845 1.23187e+06
361.995 1.23187e+06
362.145 1.23187e+06
362.295 1.23187e+06
362.445 1.22013e+06
362.595 1.20839e+06
362.745 1.20839e+06
362.895 1.20839e+06
363.045 1.20839e+06
363.195 1.20839e+06
363.345 1.20448e+06
363.495 1.20056e+06
363.645 1.20056e+06
363.795 1.20056e+06
363.945 1.20056e+06
364.095 1.20056e+06
364.245 1.20056e+06
364.395 1.19027e+06
364.545 1.17998e+06
364.695 1.17998e+06
364.845 1.17998e+06
364.995 1.17998e+06
365.145 1.17998e+06
365.295 1.17998e+06
365.445 1.18328e+06
365.595 1.18658e+06
365.745 1.18658e+06
365.895 1.18658e+06
366.045 1.18658e+06
366.195 1.18658e+06
366.345 1.16338e+06
366.495 1.14018e+06
366.645 1.14018e+06
366.795 1.14018e+06
366.945 1.14018e+06
367.095 1.14018e+06
367.245 1.14018e+06
367.395 1.14275e+06
367.545 1.14532e+06
367.695 1.14532e+06
367.845 1.14532e+06
367.995 1.14532e+06
368.145 1.14532e+06
368.295 1.14532e+06
368.445 1.13177e+06
368.595 1.11823e+06
368.745 1.11823e+06
368.895 1.11823e+06
369.045 1.11823e+06
369.195 1.11823e+06
369.345 1.09878e+06
369.495 1.07932e+06
369.645 1.07932e+06
369.795 1.07932e+06
369.945 1.07932e+06
370.095 1.07932e+06
370.245 1.07932e+06
370.395 1.0786e+06
370.545 1.07788e+06
370.695 1.07788e+06
370.845 1.07788e+06
370.995 1.07788e+06
371.145 1.07788e+06
371.295 1.07788e+06
371.445 1.07657e+06
371.595 1.07525e+06
371.745 1.07525e+06
371.895 1.07525e+06
372.045 1.07525e+06
372.195 1.07525e+06
372.345 1.08508e+06
372.495 1.09492e+06
372.645 1.09492e+06
372.795 1.09492e+06
372.945 1.09492e+06
373.095 1.09492e+06
373.245 1.09492e+06
373.395 1.09981e+06
373.545 1.10469e+06
373.695 1.10469e+06
373.845 1.10469e+06
373.995 1.10469e+06
374.145 1.10469e+06
374.295 1.10469e+06
374.445 1.10088e+06
374.595 1.09707e+06
374.745 1.09707e+06
374.895 1.09707e+06
375.045 1.09707e+06
375.195 1.09707e+06
375.345 1.11491e+06
375.495 1.13274e+06
375.645 1.13274e+06
375.795 1.13274e+06
375.945 1.13274e+06
376.095 1.13274e+06
376.245 1.13274e+06
376.395 1.11036e+06
376.545 1.08798e+06
376.695 1.08798e+06
376.845 1.08798e+06
376.995 1.08798e+06
377.145 1.08798e+06
377.295 1.08798e+06
377.445 1.06925e+06
377.595 1.05052e+06
377.745 1.05052e+06
377.895 1.05052e+06
378.045 1.05052e+06
378.195 1.05052e+06
378.345 1.0556e+06
378.495 1.06067e+06
378.645 1.06067e+06
378.795 1.06067e+06
378.945 1.06067e+06
379.095 1.06067e+06
379.245 1.06067e+06
379.395 1.07717e+06
379.545 1.09367e+06
379.695 1.09367e+06
379.845 1.09367e+06
379.995 1.09367e+06
380.145 1.09367e+06
380.295 1.09367e+06
380.445 1.16137e+06
380.595 1.22907e+06
380.745 1.22907e+06
380.895 1.22907e+06
381.045 1.22907e+06
381.195 1.22907e+06
381.345 1.20943e+06
381.495 1.18978e+06
381.645 1.18978e+06
381.795 1.18978e+06
381.945 1.18978e+06
382.095 1.18978e+06
382.245 1.18978e+06
382.395 1.09835e+06
382.545 1.00692e+06
382.695 1.00692e+06
382.845 1.00692e+06
382.995 1.00692e+06
383.145 1.00692e+06
383.295 1.00692e+06
383.445 979779
383.595 952635
383.745 952635
383.895 952635
384.045 952635
384.195 952635
384.345 959413
384.495 966192
384.645 966192
384.795 966192
384.945 966192
385.095 966192
385.245 966192
385.395 946814
385.545 927436
385.695 927436
385.845 927436
385.995 927436
386.145 927436
386.295 927436
386.445 975427
386.595 1.02342e+06
386.745 1.02342e+06
386.895 1.02342e+06
387.045 1.02342e+06
387.195 1.02342e+06
387.345 1.04148e+06
387.495 1.05953e+06
387.645 1.05953e+06
387.795 1.05953e+06
387.945 1.05953e+06
388.095 1.05953e+06
388.245 1.05953e+06
388.395 1.06185e+06
388.545 1.06417e+06
388.695 1.06417e+06
388.845 1.06417e+06
388.995 1.06417e+06
389.145 1.06417e+06
389.295 1.06417e+06
389.445 1.04486e+06
389.595 1.02555e+06
389.745 1.02555e+06
389.895 1.02555e+06
390.045 1.02555e+06
390.195 1.02555e+06
390.345 1.00089e+06
390.495 976228
390.645 976228
390.795 976228
390.945 976228
391.095 976228
391.245 976228
391.395 964207
391.545 952187
391.695 952187
391.845 952187
391.995 952187
392.145 952187
392.295 952187
392.445 898001
392.595 843815
392.745 843815
392.895 843815
393.045 843815
393.195 843815
393.345 770971
393.495 698128
393.645 698128
393.795 698128
393.945 698128
394.095 698128
394.245 698128
394.395 708798
394.545 719468
394.695 719468
394.845 719468
394.995 719468
395.145 719468
395.295 719468
395.445 852221
395.595 984973
395.745 984973
395.895 984973
396.045 984973
396.195 984973
396.345 995495
396.495 1.00602e+06
396.645 1.00602e+06
396.795 1.00602e+06
396.945 1.00602e+06
397.095 1.00602e+06
397.245 1.00602e+06
397.395 1.03385e+06
397.545 1.06169e+06
397.695 1.06169e+06
397.845 1.06169e+06
397.995 1.06169e+06
398.145 1.06169e+06
398.295 1.06169e+06
398.445 1.08737e+06
398.595 1.11304e+06
398.745 1.11304e+06
398.895 1.11304e+06
399.045 1.11304e+06
399.195 1.11304e+06
399.345 1.04923e+06
399.495 985423
399.645 985423
399.795 985423
399.945 985423
400.095 985423
400.245 985423
400.395 1.03917e+06
400.545 1.09291e+06
400.695 1.09291e+06
400.845 1.09291e+06
400.995 1.09291e+06
401.145 1.09291e+06
401.295 1.09291e+06
401.445 1.02711e+06
401.595 961303
401.745 961303
401.895 961303
402.045 961303
402.195 961303
402.345 972784
402.495 984266
402.645 984266
402.795 984266
402.945 984266
403.095 984266
403.245 984266
403.395 956996
403.545 929726
403.695 929726
403.845 929726
403.995 929726
404.145 929726
404.295 929726
404.445 999162
404.595 1.0686e+06
404.745 1.0686e+06
404.895 1.0686e+06
405.045 1.0686e+06
405.195 1.0686e+06
405.345 985795
405.495 902993
405.645 902993
405.795 902993
405.945 902993
406.095 902993
406.245 902993
406.395 1.00581e+06
406.545 1.10863e+06
406.695 1.10863e+06
406.845 1.10863e+06
406.995 1.10863e+06
407.145 1.10863e+06
407.295 1.10863e+06
407.445 1.07061e+06
407.595 1.03258e+06
407.745 1.03258e+06
407.895 1.03258e+06
408.045 1.03258e+06
408.195 1.03258e+06
408.345 988566
408.495 944551
408.645 944551
408.795 944551
408.945 944551
409.095 944551
409.245 944551
409.395 964451
409.545 984352
409.695 984352
409.845 984352
409.995 984352
410.145 984352
410.295 984352
410.445 975603
410.595 966854
410.745 966854
410.895 966854
411.045 966854
411.195 966854
411.345 1.00803e+06
411.495 1.0492e+06
411.645 1.0492e+06
411.795 1.0492e+06
411.945 1.0492e+06
412.095 1.0492e+06
412.245 1.0492e+06
412.395 986376
412.545 923554
412.695 923554
412.845 923554
412.995 923554
413.145 923554
413.295 923554
413.445 916671
413.595 909788
413.745 909788
413.895 909788
414.045 909788
414.195 909788
414.345 925183
414.495 940577
414.645 940577
414.795 940577
414.945 940577
415.095 940577
415.245 940577
415.395 1.00162e+06
415.545 1.06267e+06
415.695 1.06267e+06
415.845 1.06267e+06
415.995 1.06267e+06
416.145 1.06267e+06
416.295 1.06267e+06
416.445 1.01221e+06
416.595 961756
416.745 961756
416.895 961756
417.045 961756
417.195 961756
417.345 945880
417.495 930004
417.645 930004
417.795 930004
417.945 930004
418.095 930004
418.245 930004
418.395 888060
418.545 846116
418.695 846116
418.845 846116
418.995 846116
419.145 846116
419.295 846116
419.445 904316
419.595 962515
419.745 962515
419.895 962515
420.045 962515
420.195 962515
420.345 1.00546e+06
420.495 1.0484e+06
420.645 1.0484e+06
420.795 1.0484e+06
420.945 1.0484e+06
421.095 1.0484e+06
421.245 1.0484e+06
421.395 1.01627e+06
421.545 984144
421.695 984144
421.845 984144
421.995 984144
422.145 984144
422.295 984144
422.445 936867
422.595 889590
422.745 889590
422.895 889590
423.045 889590
423.195 889590
423.345 886977
423.495 884364
423.645 884364
423.795 884364
423.945 884364
424.095 884364
424.245 884364
424.395 852055
424.545 819745
424.695 819745
424.845 819745
424.995 819745
425.145 819745
425.295 819745
425.445 867505
425.595 915265
425.745 915265
425.895 915265
426.045 915265
426.195 915265
426.345 902658
426.495 890051
426.645 890051
426.795 890051
426.945 890051
427.095 890051
427.245 890051
427.395 875081
427.545 860110
427.695 860110
427.845 860110
427.995 860110
428.145 860110
428.295 860110
428.445 877361
428.595 894613
428.745 894613
428.895 894613
429.045 894613
429.195 894613
429.345 896007
429.495 897401
429.645 897401
429.795 897401
429.945 897401
430.095 897401
430.245 897401
430.395 886123
430.545 874846
430.695 874846
430.845 874846
430.995 874846
431.145 874846
431.295 874846
431.445 836037
431.595 797228
431.745 797228
431.895 797228
432.045 797228
432.195 797228
432.345 890464
432.495 983699
432.645 983699
432.795 983699
432.945 983699
433.095 983699
433.245 983699
433.395 897306
433.545 810913
433.695 810913
433.845 810913
433.995 810913
434.145 810913
434.295 810913
434.445 815244
434.595 819574
434.745 819574
434.895 819574
435.045 819574
435.195 819574
435.345 883185
435.495 946795
435.645 946795
435.795 946795
435.945 946795
436.095 946795
436.245 946795
436.395 920017
436.545 893239
436.695 893239
436.845 893239
436.995 893239
437.145 893239
437.295 893239
437.445 833876
437.595 774512
437.745 774512
437.895 774512
438.045 774512
438.195 774512
438.345 805580
438.495 836647
438.645 836647
438.795 836647
438.945 836647
439.095 836647
439.245 836647
439.395 897561
439.545 958475
439.695 958475
439.845 958475
439.995 958475
440.145 958475
440.295 958475
440.445 913718
440.595 868962
440.745 868962
440.895 868962
441.045 868962
441.195 868962
441.345 878066
441.495 887169
441.645 887169
441.795 887169
441.945 887169
442.095 887169
442.245 887169
442.395 871126
442.545 855083
442.695 855083
442.845 855083
442.995 855083
443.145 855083
443.295 855083
443.445 832444
443.595 809805
443.745 809805
443.895 809805
444.045 809805
444.195 809805
444.345 815829
444.495 821852
444.645 821852
444.795 821852
444.945 821852
445.095 821852
445.245 821852
445.395 868144
445.545 914435
445.695 914435
445.845 914435
445.995 914435
446.145 914435
446.295 914435
446.445 874514
446.595 834592
446.745 834592
446.895 834592
447.045 834592
447.195 834592
447.345 823098
447.495 811603
447.645 811603
447.795 811603
447.945 811603
448.095 811603
448.245 811603
448.395 843670
448.545 875738
448.695 875738
448.845 875738
448.995 875738
449.145 875738
449.295 875738
449.445 850908
449.595 826077
449.745 826077
449.895 826077
450.045 826077
450.195 826077
450.345 817353
450.495 808628
450.645 808628
450.795 808628
450.945 808628
451.095 808628
451.245 808628
451.395 823141
451.545 837653
451.695 837653
451.845 837653
451.995 837653
452.145 837653
452.295 837653
452.445 815196
452.595 792740
452.745 792740
452.895 792740
453.045 792740
453.195 792740
453.345 793234
453.495 793727
453.645 793727
453.795 793727
453.945 793727
454.095 793727
454.245 793727
454.395 829944
454.545 866160
454.695 866160
454.845 866160
454.995 866160
455.145 866160
455.295 866160
455.445 817321
455.595 768483
455.745 768483
455.895 768483
456.045 768483
456.195 768483
456.345 791598
456.495 814713
456.645 814713
456.795 814713
456.945 814713
457.095 814713
457.245 814713
457.395 837772
457.545 860830
457.695 860830
457.845 860830
457.995 860830
458.145 860830
458.295 860830
458.445 798594
458.595 736358
458.745 736358
458.895 736358
459.045 736358
459.195 736358
459.345 781167
459.495 825976
459.645 825976
459.795 825976
459.945 825976
460.095 825976
460.245 825976
460.395 844616
460.545 863257
460.695 863257
460.845 863257
460.995 863257
461.145 863257
461.295 863257
461.445 858816
461.595 854376
461.745 854376
461.895 854376
462.045 854376
462.195 854376
462.345 835767
462.495 817157
