lam(nm) Flux (10^-20 J/s/m2/um)
304.395 1.20755e+06
304.545 1.19674e+06
304.695 1.19674e+06
304.845 1.19674e+06
304.995 1.19674e+06
305.145 1.19674e+06
305.295 1.19674e+06
305.445 1.16454e+06
305.595 1.13233e+06
305.745 1.13233e+06
305.895 1.13233e+06
306.045 1.13233e+06
306.195 1.13233e+06
306.345 1.10702e+06
306.495 1.0817e+06
306.645 1.0817e+06
306.795 1.0817e+06
306.945 1.0817e+06
307.095 1.0817e+06
307.245 1.0817e+06
307.395 1.02698e+06
307.545 972263
307.695 972263
307.845 972263
307.995 972263
308.145 972263
308.295 972263
308.445 929277
308.595 886292
308.745 886292
308.895 886292
309.045 886292
309.195 886292
309.345 957213
309.495 1.02813e+06
309.645 1.02813e+06
309.795 1.02813e+06
309.945 1.02813e+06
310.095 1.02813e+06
310.245 1.02813e+06
310.395 1.1678e+06
310.545 1.30747e+06
310.695 1.30747e+06
310.845 1.30747e+06
310.995 1.30747e+06
311.145 1.30747e+06
311.295 1.30747e+06
311.445 1.2439e+06
311.595 1.18033e+06
311.745 1.18033e+06
311.895 1.18033e+06
312.045 1.18033e+06
312.195 1.18033e+06
312.345 1.17353e+06
312.495 1.16673e+06
312.645 1.16673e+06
312.795 1.16673e+06
312.945 1.16673e+06
313.095 1.16673e+06
313.245 1.16673e+06
313.395 1.17383e+06
313.545 1.18093e+06
313.695 1.18093e+06
313.845 1.18093e+06
313.995 1.18093e+06
314.145 1.18093e+06
314.295 1.18093e+06
314.445 1.16049e+06
314.595 1.14005e+06
314.745 1.14005e+06
314.895 1.14005e+06
315.045 1.14005e+06
315.195 1.14005e+06
315.345 1.12096e+06
315.495 1.10188e+06
315.645 1.10188e+06
315.795 1.10188e+06
315.945 1.10188e+06
316.095 1.10188e+06
316.245 1.10188e+06
316.395 1.12592e+06
316.545 1.14997e+06
316.695 1.14997e+06
316.845 1.14997e+06
316.995 1.14997e+06
317.145 1.14997e+06
317.295 1.14997e+06
317.445 1.12681e+06
317.595 1.10366e+06
317.745 1.10366e+06
317.895 1.10366e+06
318.045 1.10366e+06
318.195 1.10366e+06
318.345 1.06678e+06
318.495 1.02991e+06
318.645 1.02991e+06
318.795 1.02991e+06
318.945 1.02991e+06
319.095 1.02991e+06
319.245 1.02991e+06
319.395 1.05137e+06
319.545 1.07284e+06
319.695 1.07284e+06
319.845 1.07284e+06
319.995 1.07284e+06
320.145 1.07284e+06
320.295 1.07284e+06
320.445 1.04514e+06
320.595 1.01743e+06
320.745 1.01743e+06
320.895 1.01743e+06
321.045 1.01743e+06
321.195 1.01743e+06
321.345 1.00571e+06
321.495 993989
321.645 993989
321.795 993989
321.945 993989
322.095 993989
322.245 993989
322.395 1.03088e+06
322.545 1.06777e+06
322.695 1.06777e+06
322.845 1.06777e+06
322.995 1.06777e+06
323.145 1.06777e+06
323.295 1.06777e+06
323.445 1.04265e+06
323.595 1.01754e+06
323.745 1.01754e+06
323.895 1.01754e+06
324.045 1.01754e+06
324.195 1.01754e+06
324.345 1.0196e+06
324.495 1.02165e+06
324.645 1.02165e+06
324.795 1.02165e+06
324.945 1.02165e+06
325.095 1.02165e+06
325.245 1.02165e+06
325.395 1.02463e+06
325.545 1.02761e+06
325.695 1.02761e+06
325.845 1.02761e+06
325.995 1.02761e+06
326.145 1.02761e+06
326.295 1.02761e+06
326.445 1.05286e+06
326.595 1.0781e+06
326.745 1.0781e+06
326.895 1.0781e+06
327.045 1.0781e+06
327.195 1.0781e+06
327.345 1.09448e+06
327.495 1.11086e+06
327.645 1.11086e+06
327.795 1.11086e+06
327.945 1.11086e+06
328.095 1.11086e+06
328.245 1.11086e+06
328.395 1.1243e+06
328.545 1.13774e+06
328.695 1.13774e+06
328.845 1.13774e+06
328.995 1.13774e+06
329.145 1.13774e+06
329.295 1.13774e+06
329.445 1.12826e+06
329.595 1.11878e+06
329.745 1.11878e+06
329.895 1.11878e+06
330.045 1.11878e+06
330.195 1.11878e+06
330.345 1.06255e+06
330.495 1.00632e+06
330.645 1.00632e+06
330.795 1.00632e+06
330.945 1.00632e+06
331.095 1.00632e+06
331.245 1.00632e+06
331.395 1.0363e+06
331.545 1.06627e+06
331.695 1.06627e+06
331.845 1.06627e+06
331.995 1.06627e+06
332.145 1.06627e+06
332.295 1.06627e+06
332.445 1.07561e+06
332.595 1.08494e+06
332.745 1.08494e+06
332.895 1.08494e+06
333.045 1.08494e+06
333.195 1.08494e+06
333.345 1.03019e+06
333.495 975441
333.645 975441
333.795 975441
333.945 975441
334.095 975441
334.245 975441
334.395 997134
334.545 1.01883e+06
334.695 1.01883e+06
334.845 1.01883e+06
334.995 1.01883e+06
335.145 1.01883e+06
335.295 1.01883e+06
335.445 1.041e+06
335.595 1.06316e+06
335.745 1.06316e+06
335.895 1.06316e+06
336.045 1.06316e+06
336.195 1.06316e+06
336.345 1.04869e+06
336.495 1.03421e+06
336.645 1.03421e+06
336.795 1.03421e+06
336.945 1.03421e+06
337.095 1.03421e+06
337.245 1.03421e+06
337.395 1.01299e+06
337.545 991767
337.695 991767
337.845 991767
337.995 991767
338.145 991767
338.295 991767
338.445 1.00414e+06
338.595 1.0165e+06
338.745 1.0165e+06
338.895 1.0165e+06
339.045 1.0165e+06
339.195 1.0165e+06
339.345 1.01633e+06
339.495 1.01616e+06
339.645 1.01616e+06
339.795 1.01616e+06
339.945 1.01616e+06
340.095 1.01616e+06
340.245 1.01616e+06
340.395 1.01125e+06
340.545 1.00634e+06
340.695 1.00634e+06
340.845 1.00634e+06
340.995 1.00634e+06
341.145 1.00634e+06
341.295 1.00634e+06
341.445 996676
341.595 987011
341.745 987011
341.895 987011
342.045 987011
342.195 987011
342.345 973262
342.495 959514
342.645 959514
342.795 959514
342.945 959514
343.095 959514
343.245 959514
343.395 992847
343.545 1.02618e+06
343.695 1.02618e+06
343.845 1.02618e+06
343.995 1.02618e+06
344.145 1.02618e+06
344.295 1.02618e+06
344.445 1.0092e+06
344.595 992222
344.745 992222
344.895 992222
345.045 992222
345.195 992222
345.345 1.03677e+06
345.495 1.08132e+06
345.645 1.08132e+06
345.795 1.08132e+06
345.945 1.08132e+06
346.095 1.08132e+06
346.245 1.08132e+06
346.395 1.06289e+06
346.545 1.04446e+06
346.695 1.04446e+06
346.845 1.04446e+06
346.995 1.04446e+06
347.145 1.04446e+06
347.295 1.04446e+06
347.445 1.02616e+06
347.595 1.00786e+06
347.745 1.00786e+06
347.895 1.00786e+06
348.045 1.00786e+06
348.195 1.00786e+06
348.345 1.01268e+06
348.495 1.01751e+06
348.645 1.01751e+06
348.795 1.01751e+06
348.945 1.01751e+06
349.095 1.01751e+06
349.245 1.01751e+06
349.395 1.02721e+06
349.545 1.03691e+06
349.695 1.03691e+06
349.845 1.03691e+06
349.995 1.03691e+06
350.145 1.03691e+06
350.295 1.03691e+06
350.445 1.0585e+06
350.595 1.08009e+06
350.745 1.08009e+06
350.895 1.08009e+06
351.045 1.08009e+06
351.195 1.08009e+06
351.345 1.03914e+06
351.495 998184
351.645 998184
351.795 998184
351.945 998184
352.095 998184
352.245 998184
352.395 995050
352.545 991915
352.695 991915
352.845 991915
352.995 991915
353.145 991915
353.295 991915
353.445 975394
353.595 958874
353.745 958874
353.895 958874
354.045 958874
354.195 958874
354.345 903980
354.495 849086
354.645 849086
354.795 849086
354.945 849086
355.095 849086
355.245 849086
355.395 898058
355.545 947029
355.695 947029
355.845 947029
355.995 947029
356.145 947029
356.295 947029
356.445 960934
356.595 974839
356.745 974839
356.895 974839
357.045 974839
357.195 974839
357.345 963416
357.495 951992
357.645 951992
357.795 951992
357.945 951992
358.095 951992
358.245 951992
358.395 946032
358.545 940071
358.695 940071
358.845 940071
358.995 940071
359.145 940071
359.295 940071
359.445 952018
359.595 963965
359.745 963965
359.895 963965
360.045 963965
360.195 963965
360.345 964287
360.495 964609
360.645 964609
360.795 964609
360.945 964609
361.095 964609
361.245 964609
361.395 956290
361.545 947970
361.695 947970
361.845 947970
361.995 947970
362.145 947970
362.295 947970
362.445 938934
362.595 929898
362.745 929898
362.895 929898
363.045 929898
363.195 929898
363.345 926886
363.495 923874
363.645 923874
363.795 923874
363.945 923874
364.095 923874
364.245 923874
364.395 915955
364.545 908037
364.695 908037
364.845 908037
364.995 908037
365.145 908037
365.295 908037
365.445 910575
365.595 913114
365.745 913114
365.895 913114
366.045 913114
366.195 913114
366.345 895262
366.495 877411
366.645 877411
366.795 877411
366.945 877411
367.095 877411
367.245 877411
367.395 879386
367.545 881360
367.695 881360
367.845 881360
367.995 881360
368.145 881360
368.295 881360
368.445 870938
368.595 860517
368.745 860517
368.895 860517
369.045 860517
369.195 860517
369.345 845546
369.495 830574
369.645 830574
369.795 830574
369.945 830574
370.095 830574
370.245 830574
370.395 830021
370.545 829468
370.695 829468
370.845 829468
370.995 829468
371.145 829468
371.295 829468
371.445 828454
371.595 827440
371.745 827440
371.895 827440
372.045 827440
372.195 827440
372.345 835008
372.495 842575
372.645 842575
372.795 842575
372.945 842575
373.095 842575
373.245 842575
373.395 846338
373.545 850101
373.695 850101
373.845 850101
373.995 850101
374.145 850101
374.295 850101
374.445 847166
374.595 844232
374.745 844232
374.895 844232
375.045 844232
375.195 844232
375.345 857958
375.495 871685
375.645 871685
375.795 871685
375.945 871685
376.095 871685
376.245 871685
376.395 854463
376.545 837242
376.695 837242
376.845 837242
376.995 837242
377.145 837242
377.295 837242
377.445 822828
377.595 808415
377.745 808415
377.895 808415
378.045 808415
378.195 808415
378.345 812317
378.495 816220
378.645 816220
378.795 816220
378.945 816220
379.095 816220
379.245 816220
379.395 828917
379.545 841614
379.695 841614
379.845 841614
379.995 841614
380.145 841614
380.295 841614
380.445 893714
380.595 945814
380.745 945814
380.895 945814
381.045 945814
381.195 945814
381.345 930697
381.495 915579
381.645 915579
381.795 915579
381.945 915579
382.095 915579
382.245 915579
382.395 845221
382.545 774862
382.695 774862
382.845 774862
382.995 774862
383.145 774862
383.295 774862
383.445 753973
383.595 733085
383.745 733085
383.895 733085
384.045 733085
384.195 733085
384.345 738302
384.495 743518
384.645 743518
384.795 743518
384.945 743518
385.095 743518
385.245 743518
385.395 728606
385.545 713694
385.695 713694
385.845 713694
385.995 713694
386.145 713694
386.295 713694
386.445 750625
386.595 787556
386.745 787556
386.895 787556
387.045 787556
387.195 787556
387.345 801451
387.495 815346
387.645 815346
387.795 815346
387.945 815346
388.095 815346
388.245 815346
388.395 817130
388.545 818913
388.695 818913
388.845 818913
388.995 818913
389.145 818913
389.295 818913
389.445 804055
389.595 789197
389.745 789197
389.895 789197
390.045 789197
390.195 789197
390.345 770219
390.495 751241
390.645 751241
390.795 751241
390.945 751241
391.095 751241
391.245 751241
391.395 741991
391.545 732741
391.695 732741
391.845 732741
391.995 732741
392.145 732741
392.295 732741
392.445 691043
392.595 649345
392.745 649345
392.895 649345
393.045 649345
393.195 649345
393.345 593289
393.495 537233
393.645 537233
393.795 537233
393.945 537233
394.095 537233
394.245 537233
394.395 545444
394.545 553656
394.695 553656
394.845 553656
394.995 553656
395.145 553656
395.295 553656
395.445 655813
395.595 757971
395.745 757971
395.895 757971
396.045 757971
396.195 757971
396.345 766068
396.495 774164
396.645 774164
396.795 774164
396.945 774164
397.095 774164
397.245 774164
397.395 795587
397.545 817009
397.695 817009
397.845 817009
397.995 817009
398.145 817009
398.295 817009
398.445 836765
398.595 856520
398.745 856520
398.895 856520
399.045 856520
399.195 856520
399.345 807419
399.495 758317
399.645 758317
399.795 758317
399.945 758317
400.095 758317
400.245 758317
400.395 799674
400.545 841031
400.695 841031
400.845 841031
400.995 841031
401.145 841031
401.295 841031
401.445 790393
401.595 739756
401.745 739756
401.895 739756
402.045 739756
402.195 739756
402.345 748591
402.495 757426
402.645 757426
402.795 757426
402.945 757426
403.095 757426
403.245 757426
403.395 736441
403.545 715456
403.695 715456
403.845 715456
403.995 715456
404.145 715456
404.295 715456
404.445 768889
404.595 822322
404.745 822322
404.895 822322
405.045 822322
405.195 822322
405.345 758603
405.495 694884
405.645 694884
405.795 694884
405.945 694884
406.095 694884
406.245 694884
406.395 774006
406.545 853128
406.695 853128
406.845 853128
406.995 853128
407.145 853128
407.295 853128
407.445 823868
407.595 794608
407.745 794608
407.895 794608
408.045 794608
408.195 794608
408.345 760736
408.495 726864
408.645 726864
408.795 726864
408.945 726864
409.095 726864
409.245 726864
409.395 742179
409.545 757493
409.695 757493
409.845 757493
409.995 757493
410.145 757493
410.295 757493
410.445 750760
410.595 744027
410.745 744027
410.895 744027
411.045 744027
411.195 744027
411.345 775711
411.495 807394
411.645 807394
411.795 807394
411.945 807394
412.095 807394
412.245 807394
412.395 759051
412.545 710707
412.695 710707
412.845 710707
412.995 710707
413.145 710707
413.295 710707
413.445 705410
413.595 700113
413.745 700113
413.895 700113
414.045 700113
414.195 700113
414.345 711960
414.495 723806
414.645 723806
414.795 723806
414.945 723806
415.095 723806
415.245 723806
415.395 770785
415.545 817763
415.695 817763
415.845 817763
415.995 817763
416.145 817763
416.295 817763
416.445 778934
416.595 740104
416.745 740104
416.895 740104
417.045 740104
417.195 740104
417.345 727887
417.495 715670
417.645 715670
417.795 715670
417.945 715670
418.095 715670
418.245 715670
418.395 683393
418.545 651116
418.695 651116
418.845 651116
418.995 651116
419.145 651116
419.295 651116
419.445 695902
419.595 740689
419.745 740689
419.895 740689
420.045 740689
420.195 740689
420.345 773736
420.495 806783
420.645 806783
420.795 806783
420.945 806783
421.095 806783
421.245 806783
421.395 782058
421.545 757333
421.695 757333
421.845 757333
421.995 757333
422.145 757333
422.295 757333
422.445 720952
422.595 684570
422.745 684570
422.895 684570
423.045 684570
423.195 684570
423.345 682560
423.495 680549
423.645 680549
423.795 680549
423.945 680549
424.095 680549
424.245 680549
424.395 655686
424.545 630822
424.695 630822
424.845 630822
424.995 630822
425.145 630822
425.295 630822
425.445 667575
425.595 704328
425.745 704328
425.895 704328
426.045 704328
426.195 704328
426.345 694626
426.495 684925
426.645 684925
426.795 684925
426.945 684925
427.095 684925
427.245 684925
427.395 673405
427.545 661884
427.695 661884
427.845 661884
427.995 661884
428.145 661884
428.295 661884
428.445 675160
428.595 688435
428.745 688435
428.895 688435
429.045 688435
429.195 688435
429.345 689508
429.495 690581
429.645 690581
429.795 690581
429.945 690581
430.095 690581
430.245 690581
430.395 681902
430.545 673224
430.695 673224
430.845 673224
430.995 673224
431.145 673224
431.295 673224
431.445 643359
431.595 613495
431.745 613495
431.895 613495
432.045 613495
432.195 613495
432.345 685242
432.495 756990
432.645 756990
432.795 756990
432.945 756990
433.095 756990
433.245 756990
433.395 690508
433.545 624026
433.695 624026
433.845 624026
433.995 624026
434.145 624026
434.295 624026
434.445 627358
434.595 630691
434.745 630691
434.895 630691
435.045 630691
435.195 630691
435.345 679641
435.495 728591
435.645 728591
435.795 728591
435.945 728591
436.095 728591
436.245 728591
436.395 707985
436.545 687378
436.695 687378
436.845 687378
436.995 687378
437.145 687378
437.295 687378
437.445 641696
437.595 596014
437.745 596014
437.895 596014
438.045 596014
438.195 596014
438.345 619921
438.495 643829
438.645 643829
438.795 643829
438.945 643829
439.095 643829
439.245 643829
439.395 690704
439.545 737579
439.695 737579
439.845 737579
439.995 737579
440.145 737579
440.295 737579
440.445 703138
440.595 668696
440.745 668696
440.895 668696
441.045 668696
441.195 668696
441.345 675702
441.495 682707
441.645 682707
441.795 682707
441.945 682707
442.095 682707
442.245 682707
442.395 670362
442.545 658016
442.695 658016
442.845 658016
442.995 658016
443.145 658016
443.295 658016
443.445 640594
443.595 623173
443.745 623173
443.895 623173
444.045 623173
444.195 623173
444.345 627808
444.495 632444
444.645 632444
444.795 632444
444.945 632444
445.095 632444
445.245 632444
445.395 668066
445.545 703689
445.695 703689
445.845 703689
445.995 703689
446.145 703689
446.295 703689
446.445 672968
446.595 642247
446.745 642247
446.895 642247
447.045 642247
447.195 642247
447.345 633402
447.495 624556
447.645 624556
447.795 624556
447.945 624556
448.095 624556
448.245 624556
448.395 649233
448.545 673910
448.695 673910
448.845 673910
448.995 673910
449.145 673910
449.295 673910
449.445 654803
449.595 635695
449.745 635695
449.895 635695
450.045 635695
450.195 635695
450.345 628981
450.495 622267
450.645 622267
450.795 622267
450.945 622267
451.095 622267
451.245 622267
451.395 633435
451.545 644603
451.695 644603
451.845 644603
451.995 644603
452.145 644603
452.295 644603
452.445 627322
452.595 610041
452.745 610041
452.895 610041
453.045 610041
453.195 610041
453.345 610421
453.495 610801
453.645 610801
453.795 610801
453.945 610801
454.095 610801
454.245 610801
454.395 638670
454.545 666540
454.695 666540
454.845 666540
454.995 666540
455.145 666540
455.295 666540
455.445 628957
455.595 591374
455.745 591374
455.895 591374
456.045 591374
456.195 591374
456.345 609162
456.495 626950
456.645 626950
456.795 626950
456.945 626950
457.095 626950
457.245 626950
457.395 644694
457.545 662438
457.695 662438
457.845 662438
457.995 662438
458.145 662438
458.295 662438
458.445 614546
458.595 566653
458.745 566653
458.895 566653
459.045 566653
459.195 566653
459.345 601135
459.495 635617
459.645 635617
459.795 635617
459.945 635617
460.095 635617
460.245 635617
460.395 649961
460.545 664306
460.695 664306
460.845 664306
460.995 664306
461.145 664306
461.295 664306
461.445 660889
461.595 657472
461.745 657472
461.895 657472
462.045 657472
462.195 657472
462.345 643151
462.495 628831
462.645 628831
462.795 628831
462.945 628831
463.095 628831
463.245 628831
463.395 617016
463.545 605201
463.695 605201
463.845 605201
463.995 605201
464.145 605201
464.295 605201
464.445 629861
464.595 654522
464.745 654522
464.895 654522
465.045 654522
465.195 654522
465.345 665111
465.495 675700
465.645 675700
465.795 675700
465.945 675700
466.095 675700
466.245 675700
466.395 655795
466.545 635890
466.695 635890
466.845 635890
466.995 635890
467.145 635890
467.295 635890
467.445 575440
467.595 514990
467.745 514990
467.895 514990
468.045 514990
468.195 514990
468.345 543797
468.495 572604
468.645 572604
468.795 572604
468.945 572604
469.095 572604
469.245 572604
469.395 575251
469.545 577898
469.695 577898
469.845 577898
469.995 577898
470.145 577898
470.295 577898
470.445 539218
470.595 500537
470.745 500537
470.895 500537
471.045 500537
471.195 500537
471.345 537661
471.495 574785
471.645 574785
471.795 574785
471.945 574785
472.095 574785
472.245 574785
472.395 550847
472.545 526910
472.695 526910
472.845 526910
472.995 526910
473.145 526910
473.295 526910
473.445 546046
473.595 565182
473.745 565182
473.895 565182
474.045 565182
474.195 565182
474.345 554710
474.495 544239
474.645 544239
474.795 544239
474.945 544239
475.095 544239
475.245 544239
475.395 547243
475.545 550247
475.695 550247
475.845 550247
475.995 550247
476.145 550247
476.295 550247
476.445 546108
476.595 541969
476.745 541969
476.895 541969
477.045 541969
477.195 541969
477.345 546168
477.495 550367
477.645 550367
477.795 550367
477.945 550367
478.095 550367
478.245 550367
478.395 559527
478.545 568687
478.695 568687
478.845 568687
478.995 568687
479.145 568687
479.295 568687
