lam(nm) Flux (10^-20 J/s/m2/um)
304.395 1.60281e+06
304.545 1.58847e+06
304.695 1.58847e+06
304.845 1.58847e+06
304.995 1.58847e+06
305.145 1.58847e+06
305.295 1.58847e+06
305.445 1.54572e+06
305.595 1.50297e+06
305.745 1.50297e+06
305.895 1.50297e+06
306.045 1.50297e+06
306.195 1.50297e+06
306.345 1.46937e+06
306.495 1.43577e+06
306.645 1.43577e+06
306.795 1.43577e+06
306.945 1.43577e+06
307.095 1.43577e+06
307.245 1.43577e+06
307.395 1.36314e+06
307.545 1.29051e+06
307.695 1.29051e+06
307.845 1.29051e+06
307.995 1.29051e+06
308.145 1.29051e+06
308.295 1.29051e+06
308.445 1.23345e+06
308.595 1.1764e+06
308.745 1.1764e+06
308.895 1.1764e+06
309.045 1.1764e+06
309.195 1.1764e+06
309.345 1.27053e+06
309.495 1.36467e+06
309.645 1.36467e+06
309.795 1.36467e+06
309.945 1.36467e+06
310.095 1.36467e+06
310.245 1.36467e+06
310.395 1.55005e+06
310.545 1.73544e+06
310.695 1.73544e+06
310.845 1.73544e+06
310.995 1.73544e+06
311.145 1.73544e+06
311.295 1.73544e+06
311.445 1.65106e+06
311.595 1.56669e+06
311.745 1.56669e+06
311.895 1.56669e+06
312.045 1.56669e+06
312.195 1.56669e+06
312.345 1.55766e+06
312.495 1.54864e+06
312.645 1.54864e+06
312.795 1.54864e+06
312.945 1.54864e+06
313.095 1.54864e+06
313.245 1.54864e+06
313.395 1.55806e+06
313.545 1.56748e+06
313.695 1.56748e+06
313.845 1.56748e+06
313.995 1.56748e+06
314.145 1.56748e+06
314.295 1.56748e+06
314.445 1.54035e+06
314.595 1.51322e+06
314.745 1.51322e+06
314.895 1.51322e+06
315.045 1.51322e+06
315.195 1.51322e+06
315.345 1.48788e+06
315.495 1.46255e+06
315.645 1.46255e+06
315.795 1.46255e+06
315.945 1.46255e+06
316.095 1.46255e+06
316.245 1.46255e+06
316.395 1.49446e+06
316.545 1.52638e+06
316.695 1.52638e+06
316.845 1.52638e+06
316.995 1.52638e+06
317.145 1.52638e+06
317.295 1.52638e+06
317.445 1.49565e+06
317.595 1.46492e+06
317.745 1.46492e+06
317.895 1.46492e+06
318.045 1.46492e+06
318.195 1.46492e+06
318.345 1.41597e+06
318.495 1.36702e+06
318.645 1.36702e+06
318.795 1.36702e+06
318.945 1.36702e+06
319.095 1.36702e+06
319.245 1.36702e+06
319.395 1.39552e+06
319.545 1.42401e+06
319.695 1.42401e+06
319.845 1.42401e+06
319.995 1.42401e+06
320.145 1.42401e+06
320.295 1.42401e+06
320.445 1.38723e+06
320.595 1.35046e+06
320.745 1.35046e+06
320.895 1.35046e+06
321.045 1.35046e+06
321.195 1.35046e+06
321.345 1.3349e+06
321.495 1.31935e+06
321.645 1.31935e+06
321.795 1.31935e+06
321.945 1.31935e+06
322.095 1.31935e+06
322.245 1.31935e+06
322.395 1.36831e+06
322.545 1.41728e+06
322.695 1.41728e+06
322.845 1.41728e+06
322.995 1.41728e+06
323.145 1.41728e+06
323.295 1.41728e+06
323.445 1.38394e+06
323.595 1.35061e+06
323.745 1.35061e+06
323.895 1.35061e+06
324.045 1.35061e+06
324.195 1.35061e+06
324.345 1.35334e+06
324.495 1.35607e+06
324.645 1.35607e+06
324.795 1.35607e+06
324.945 1.35607e+06
325.095 1.35607e+06
325.245 1.35607e+06
325.395 1.36002e+06
325.545 1.36397e+06
325.695 1.36397e+06
325.845 1.36397e+06
325.995 1.36397e+06
326.145 1.36397e+06
326.295 1.36397e+06
326.445 1.39748e+06
326.595 1.43099e+06
326.745 1.43099e+06
326.895 1.43099e+06
327.045 1.43099e+06
327.195 1.43099e+06
327.345 1.45273e+06
327.495 1.47448e+06
327.645 1.47448e+06
327.795 1.47448e+06
327.945 1.47448e+06
328.095 1.47448e+06
328.245 1.47448e+06
328.395 1.49232e+06
328.545 1.51016e+06
328.695 1.51016e+06
328.845 1.51016e+06
328.995 1.51016e+06
329.145 1.51016e+06
329.295 1.51016e+06
329.445 1.49757e+06
329.595 1.48498e+06
329.745 1.48498e+06
329.895 1.48498e+06
330.045 1.48498e+06
330.195 1.48498e+06
330.345 1.41035e+06
330.495 1.33572e+06
330.645 1.33572e+06
330.795 1.33572e+06
330.945 1.33572e+06
331.095 1.33572e+06
331.245 1.33572e+06
331.395 1.37551e+06
331.545 1.41529e+06
331.695 1.41529e+06
331.845 1.41529e+06
331.995 1.41529e+06
332.145 1.41529e+06
332.295 1.41529e+06
332.445 1.42768e+06
332.595 1.44007e+06
332.745 1.44007e+06
332.895 1.44007e+06
333.045 1.44007e+06
333.195 1.44007e+06
333.345 1.3674e+06
333.495 1.29473e+06
333.645 1.29473e+06
333.795 1.29473e+06
333.945 1.29473e+06
334.095 1.29473e+06
334.245 1.29473e+06
334.395 1.32352e+06
334.545 1.35232e+06
334.695 1.35232e+06
334.845 1.35232e+06
334.995 1.35232e+06
335.145 1.35232e+06
335.295 1.35232e+06
335.445 1.38174e+06
335.595 1.41116e+06
335.745 1.41116e+06
335.895 1.41116e+06
336.045 1.41116e+06
336.195 1.41116e+06
336.345 1.39195e+06
336.495 1.37273e+06
336.645 1.37273e+06
336.795 1.37273e+06
336.945 1.37273e+06
337.095 1.37273e+06
337.245 1.37273e+06
337.395 1.34456e+06
337.545 1.3164e+06
337.695 1.3164e+06
337.845 1.3164e+06
337.995 1.3164e+06
338.145 1.3164e+06
338.295 1.3164e+06
338.445 1.33281e+06
338.595 1.34923e+06
338.745 1.34923e+06
338.895 1.34923e+06
339.045 1.34923e+06
339.195 1.34923e+06
339.345 1.349e+06
339.495 1.34877e+06
339.645 1.34877e+06
339.795 1.34877e+06
339.945 1.34877e+06
340.095 1.34877e+06
340.245 1.34877e+06
340.395 1.34226e+06
340.545 1.33574e+06
340.695 1.33574e+06
340.845 1.33574e+06
340.995 1.33574e+06
341.145 1.33574e+06
341.295 1.33574e+06
341.445 1.32291e+06
341.595 1.31008e+06
341.745 1.31008e+06
341.895 1.31008e+06
342.045 1.31008e+06
342.195 1.31008e+06
342.345 1.29184e+06
342.495 1.27359e+06
342.645 1.27359e+06
342.795 1.27359e+06
342.945 1.27359e+06
343.095 1.27359e+06
343.245 1.27359e+06
343.395 1.31783e+06
343.545 1.36208e+06
343.695 1.36208e+06
343.845 1.36208e+06
343.995 1.36208e+06
344.145 1.36208e+06
344.295 1.36208e+06
344.445 1.33954e+06
344.595 1.317e+06
344.745 1.317e+06
344.895 1.317e+06
345.045 1.317e+06
345.195 1.317e+06
345.345 1.37613e+06
345.495 1.43527e+06
345.645 1.43527e+06
345.795 1.43527e+06
345.945 1.43527e+06
346.095 1.43527e+06
346.245 1.43527e+06
346.395 1.4108e+06
346.545 1.38634e+06
346.695 1.38634e+06
346.845 1.38634e+06
346.995 1.38634e+06
347.145 1.38634e+06
347.295 1.38634e+06
347.445 1.36205e+06
347.595 1.33776e+06
347.745 1.33776e+06
347.895 1.33776e+06
348.045 1.33776e+06
348.195 1.33776e+06
348.345 1.34416e+06
348.495 1.35056e+06
348.645 1.35056e+06
348.795 1.35056e+06
348.945 1.35056e+06
349.095 1.35056e+06
349.245 1.35056e+06
349.395 1.36344e+06
349.545 1.37632e+06
349.695 1.37632e+06
349.845 1.37632e+06
349.995 1.37632e+06
350.145 1.37632e+06
350.295 1.37632e+06
350.445 1.40498e+06
350.595 1.43364e+06
350.745 1.43364e+06
350.895 1.43364e+06
351.045 1.43364e+06
351.195 1.43364e+06
351.345 1.37928e+06
351.495 1.32491e+06
351.645 1.32491e+06
351.795 1.32491e+06
351.945 1.32491e+06
352.095 1.32491e+06
352.245 1.32491e+06
352.395 1.32075e+06
352.545 1.31659e+06
352.695 1.31659e+06
352.845 1.31659e+06
352.995 1.31659e+06
353.145 1.31659e+06
353.295 1.31659e+06
353.445 1.29467e+06
353.595 1.27274e+06
353.745 1.27274e+06
353.895 1.27274e+06
354.045 1.27274e+06
354.195 1.27274e+06
354.345 1.19987e+06
354.495 1.12701e+06
354.645 1.12701e+06
354.795 1.12701e+06
354.945 1.12701e+06
355.095 1.12701e+06
355.245 1.12701e+06
355.395 1.19201e+06
355.545 1.25702e+06
355.695 1.25702e+06
355.845 1.25702e+06
355.995 1.25702e+06
356.145 1.25702e+06
356.295 1.25702e+06
356.445 1.27547e+06
356.595 1.29393e+06
356.745 1.29393e+06
356.895 1.29393e+06
357.045 1.29393e+06
357.195 1.29393e+06
357.345 1.27877e+06
357.495 1.2636e+06
357.645 1.2636e+06
357.795 1.2636e+06
357.945 1.2636e+06
358.095 1.2636e+06
358.245 1.2636e+06
358.395 1.25569e+06
358.545 1.24778e+06
358.695 1.24778e+06
358.845 1.24778e+06
358.995 1.24778e+06
359.145 1.24778e+06
359.295 1.24778e+06
359.445 1.26364e+06
359.595 1.2795e+06
359.745 1.2795e+06
359.895 1.2795e+06
360.045 1.2795e+06
360.195 1.2795e+06
360.345 1.27992e+06
360.495 1.28035e+06
360.645 1.28035e+06
360.795 1.28035e+06
360.945 1.28035e+06
361.095 1.28035e+06
361.245 1.28035e+06
361.395 1.26931e+06
361.545 1.25826e+06
361.695 1.25826e+06
361.845 1.25826e+06
361.995 1.25826e+06
362.145 1.25826e+06
362.295 1.25826e+06
362.445 1.24627e+06
362.595 1.23428e+06
362.745 1.23428e+06
362.895 1.23428e+06
363.045 1.23428e+06
363.195 1.23428e+06
363.345 1.23028e+06
363.495 1.22628e+06
363.645 1.22628e+06
363.795 1.22628e+06
363.945 1.22628e+06
364.095 1.22628e+06
364.245 1.22628e+06
364.395 1.21577e+06
364.545 1.20526e+06
364.695 1.20526e+06
364.845 1.20526e+06
364.995 1.20526e+06
365.145 1.20526e+06
365.295 1.20526e+06
365.445 1.20863e+06
365.595 1.212e+06
365.745 1.212e+06
365.895 1.212e+06
366.045 1.212e+06
366.195 1.212e+06
366.345 1.1883e+06
366.495 1.16461e+06
366.645 1.16461e+06
366.795 1.16461e+06
366.945 1.16461e+06
367.095 1.16461e+06
367.245 1.16461e+06
367.395 1.16723e+06
367.545 1.16985e+06
367.695 1.16985e+06
367.845 1.16985e+06
367.995 1.16985e+06
368.145 1.16985e+06
368.295 1.16985e+06
368.445 1.15602e+06
368.595 1.14219e+06
368.745 1.14219e+06
368.895 1.14219e+06
369.045 1.14219e+06
369.195 1.14219e+06
369.345 1.12231e+06
369.495 1.10244e+06
369.645 1.10244e+06
369.795 1.10244e+06
369.945 1.10244e+06
370.095 1.10244e+06
370.245 1.10244e+06
370.395 1.10171e+06
370.545 1.10097e+06
370.695 1.10097e+06
370.845 1.10097e+06
370.995 1.10097e+06
371.145 1.10097e+06
371.295 1.10097e+06
371.445 1.09963e+06
371.595 1.09828e+06
371.745 1.09828e+06
371.895 1.09828e+06
372.045 1.09828e+06
372.195 1.09828e+06
372.345 1.10833e+06
372.495 1.11837e+06
372.645 1.11837e+06
372.795 1.11837e+06
372.945 1.11837e+06
373.095 1.11837e+06
373.245 1.11837e+06
373.395 1.12337e+06
373.545 1.12836e+06
373.695 1.12836e+06
373.845 1.12836e+06
373.995 1.12836e+06
374.145 1.12836e+06
374.295 1.12836e+06
374.445 1.12446e+06
374.595 1.12057e+06
374.745 1.12057e+06
374.895 1.12057e+06
375.045 1.12057e+06
375.195 1.12057e+06
375.345 1.13879e+06
375.495 1.15701e+06
375.645 1.15701e+06
375.795 1.15701e+06
375.945 1.15701e+06
376.095 1.15701e+06
376.245 1.15701e+06
376.395 1.13415e+06
376.545 1.11129e+06
376.695 1.11129e+06
376.845 1.11129e+06
376.995 1.11129e+06
377.145 1.11129e+06
377.295 1.11129e+06
377.445 1.09216e+06
377.595 1.07303e+06
377.745 1.07303e+06
377.895 1.07303e+06
378.045 1.07303e+06
378.195 1.07303e+06
378.345 1.07821e+06
378.495 1.08339e+06
378.645 1.08339e+06
378.795 1.08339e+06
378.945 1.08339e+06
379.095 1.08339e+06
379.245 1.08339e+06
379.395 1.10024e+06
379.545 1.11709e+06
379.695 1.11709e+06
379.845 1.11709e+06
379.995 1.11709e+06
380.145 1.11709e+06
380.295 1.11709e+06
380.445 1.18625e+06
380.595 1.2554e+06
380.745 1.2554e+06
380.895 1.2554e+06
381.045 1.2554e+06
381.195 1.2554e+06
381.345 1.23534e+06
381.495 1.21527e+06
381.645 1.21527e+06
381.795 1.21527e+06
381.945 1.21527e+06
382.095 1.21527e+06
382.245 1.21527e+06
382.395 1.12188e+06
382.545 1.02849e+06
382.695 1.02849e+06
382.845 1.02849e+06
382.995 1.02849e+06
383.145 1.02849e+06
383.295 1.02849e+06
383.445 1.00077e+06
383.595 973042
383.745 973042
383.895 973042
384.045 973042
384.195 973042
384.345 979966
384.495 986890
384.645 986890
384.795 986890
384.945 986890
385.095 986890
385.245 986890
385.395 967097
385.545 947304
385.695 947304
385.845 947304
385.995 947304
386.145 947304
386.295 947304
386.445 996323
386.595 1.04534e+06
386.745 1.04534e+06
386.895 1.04534e+06
387.045 1.04534e+06
387.195 1.04534e+06
387.345 1.06379e+06
387.495 1.08223e+06
387.645 1.08223e+06
387.795 1.08223e+06
387.945 1.08223e+06
388.095 1.08223e+06
388.245 1.08223e+06
388.395 1.0846e+06
388.545 1.08696e+06
388.695 1.08696e+06
388.845 1.08696e+06
388.995 1.08696e+06
389.145 1.08696e+06
389.295 1.08696e+06
389.445 1.06724e+06
389.595 1.04752e+06
389.745 1.04752e+06
389.895 1.04752e+06
390.045 1.04752e+06
390.195 1.04752e+06
390.345 1.02233e+06
390.495 997141
390.645 997141
390.795 997141
390.945 997141
391.095 997141
391.245 997141
391.395 984863
391.545 972585
391.695 972585
391.845 972585
391.995 972585
392.145 972585
392.295 972585
392.445 917238
392.595 861892
392.745 861892
392.895 861892
393.045 861892
393.195 861892
393.345 787487
393.495 713083
393.645 713083
393.795 713083
393.945 713083
394.095 713083
394.245 713083
394.395 723982
394.545 734881
394.695 734881
394.845 734881
394.995 734881
395.145 734881
395.295 734881
395.445 870477
395.595 1.00607e+06
395.745 1.00607e+06
395.895 1.00607e+06
396.045 1.00607e+06
396.195 1.00607e+06
396.345 1.01682e+06
396.495 1.02757e+06
396.645 1.02757e+06
396.795 1.02757e+06
396.945 1.02757e+06
397.095 1.02757e+06
397.245 1.02757e+06
397.395 1.056e+06
397.545 1.08444e+06
397.695 1.08444e+06
397.845 1.08444e+06
397.995 1.08444e+06
398.145 1.08444e+06
398.295 1.08444e+06
398.445 1.11066e+06
398.595 1.13688e+06
398.745 1.13688e+06
398.895 1.13688e+06
399.045 1.13688e+06
399.195 1.13688e+06
399.345 1.07171e+06
399.495 1.00653e+06
399.645 1.00653e+06
399.795 1.00653e+06
399.945 1.00653e+06
400.095 1.00653e+06
400.245 1.00653e+06
400.395 1.06143e+06
400.545 1.11632e+06
400.695 1.11632e+06
400.845 1.11632e+06
400.995 1.11632e+06
401.145 1.11632e+06
401.295 1.11632e+06
401.445 1.04911e+06
401.595 981896
401.745 981896
401.895 981896
402.045 981896
402.195 981896
402.345 993623
402.495 1.00535e+06
402.645 1.00535e+06
402.795 1.00535e+06
402.945 1.00535e+06
403.095 1.00535e+06
403.245 1.00535e+06
403.395 977497
403.545 949643
403.695 949643
403.845 949643
403.995 949643
404.145 949643
404.295 949643
404.445 1.02057e+06
404.595 1.09149e+06
404.745 1.09149e+06
404.895 1.09149e+06
405.045 1.09149e+06
405.195 1.09149e+06
405.345 1.00691e+06
405.495 922337
405.645 922337
405.795 922337
405.945 922337
406.095 922337
406.245 922337
406.395 1.02736e+06
406.545 1.13238e+06
406.695 1.13238e+06
406.845 1.13238e+06
406.995 1.13238e+06
407.145 1.13238e+06
407.295 1.13238e+06
407.445 1.09354e+06
407.595 1.0547e+06
407.745 1.0547e+06
407.895 1.0547e+06
408.045 1.0547e+06
408.195 1.0547e+06
408.345 1.00974e+06
408.495 964785
408.645 964785
408.795 964785
408.945 964785
409.095 964785
409.245 964785
409.395 985112
409.545 1.00544e+06
409.695 1.00544e+06
409.845 1.00544e+06
409.995 1.00544e+06
410.145 1.00544e+06
410.295 1.00544e+06
410.445 996503
410.595 987566
410.745 987566
410.895 987566
411.045 987566
411.195 987566
411.345 1.02962e+06
411.495 1.07167e+06
411.645 1.07167e+06
411.795 1.07167e+06
411.945 1.07167e+06
412.095 1.07167e+06
412.245 1.07167e+06
412.395 1.00751e+06
412.545 943339
412.695 943339
412.845 943339
412.995 943339
413.145 943339
413.295 943339
413.445 936308
413.595 929278
413.745 929278
413.895 929278
414.045 929278
414.195 929278
414.345 945002
414.495 960726
414.645 960726
414.795 960726
414.945 960726
415.095 960726
415.245 960726
415.395 1.02308e+06
415.545 1.08544e+06
415.695 1.08544e+06
415.845 1.08544e+06
415.995 1.08544e+06
416.145 1.08544e+06
416.295 1.08544e+06
416.445 1.0339e+06
416.595 982358
416.745 982358
416.895 982358
417.045 982358
417.195 982358
417.345 966142
417.495 949926
417.645 949926
417.795 949926
417.945 949926
418.095 949926
418.245 949926
418.395 907084
418.545 864242
418.695 864242
418.845 864242
418.995 864242
419.145 864242
419.295 864242
419.445 923688
419.595 983135
419.745 983135
419.895 983135
420.045 983135
420.195 983135
420.345 1.027e+06
420.495 1.07086e+06
420.645 1.07086e+06
420.795 1.07086e+06
420.945 1.07086e+06
421.095 1.07086e+06
421.245 1.07086e+06
421.395 1.03804e+06
421.545 1.00523e+06
421.695 1.00523e+06
421.845 1.00523e+06
421.995 1.00523e+06
422.145 1.00523e+06
422.295 1.00523e+06
422.445 956937
422.595 908647
422.745 908647
422.895 908647
423.045 908647
423.195 908647
423.345 905978
423.495 903309
423.645 903309
423.795 903309
423.945 903309
424.095 903309
424.245 903309
424.395 870308
424.545 837306
424.695 837306
424.845 837306
424.995 837306
425.145 837306
425.295 837306
425.445 886089
425.595 934872
425.745 934872
425.895 934872
426.045 934872
426.195 934872
426.345 921995
426.495 909118
426.645 909118
426.795 909118
426.945 909118
427.095 909118
427.245 909118
427.395 893827
427.545 878535
427.695 878535
427.845 878535
427.995 878535
428.145 878535
428.295 878535
428.445 896156
428.595 913777
428.745 913777
428.895 913777
429.045 913777
429.195 913777
429.345 915201
429.495 916625
429.645 916625
429.795 916625
429.945 916625
430.095 916625
430.245 916625
430.395 905106
430.545 893587
430.695 893587
430.845 893587
430.995 893587
431.145 893587
431.295 893587
431.445 853947
431.595 814307
431.745 814307
431.895 814307
432.045 814307
432.195 814307
432.345 909539
432.495 1.00477e+06
432.645 1.00477e+06
432.795 1.00477e+06
432.945 1.00477e+06
433.095 1.00477e+06
433.245 1.00477e+06
433.395 916529
433.545 828285
433.695 828285
433.845 828285
433.995 828285
434.145 828285
434.295 828285
434.445 832708
434.595 837131
434.745 837131
434.895 837131
435.045 837131
435.195 837131
435.345 902104
435.495 967077
435.645 967077
435.795 967077
435.945 967077
436.095 967077
436.245 967077
436.395 939726
436.545 912374
436.695 912374
436.845 912374
436.995 912374
437.145 912374
437.295 912374
437.445 851739
437.595 791104
437.745 791104
437.895 791104
438.045 791104
438.195 791104
438.345 822837
438.495 854570
438.645 854570
438.795 854570
438.945 854570
439.095 854570
439.245 854570
439.395 916789
439.545 979007
439.695 979007
439.845 979007
439.995 979007
440.145 979007
440.295 979007
440.445 933292
440.595 887577
440.745 887577
440.895 887577
441.045 887577
441.195 887577
441.345 896876
441.495 906174
441.645 906174
441.795 906174
441.945 906174
442.095 906174
442.245 906174
442.395 889788
442.545 873401
442.695 873401
442.845 873401
442.995 873401
443.145 873401
443.295 873401
443.445 850277
443.595 827152
443.745 827152
443.895 827152
444.045 827152
444.195 827152
444.345 833305
444.495 839458
444.645 839458
444.795 839458
444.945 839458
445.095 839458
445.245 839458
445.395 886741
445.545 934024
445.695 934024
445.845 934024
445.995 934024
446.145 934024
446.295 934024
446.445 893248
446.595 852471
446.745 852471
446.895 852471
447.045 852471
447.195 852471
447.345 840730
447.495 828989
447.645 828989
447.795 828989
447.945 828989
448.095 828989
448.245 828989
448.395 861744
448.545 894498
448.695 894498
448.845 894498
448.995 894498
449.145 894498
449.295 894498
449.445 869136
449.595 843774
449.745 843774
449.895 843774
450.045 843774
450.195 843774
450.345 834862
450.495 825951
450.645 825951
450.795 825951
450.945 825951
451.095 825951
451.245 825951
451.395 840774
451.545 855597
451.695 855597
451.845 855597
451.995 855597
452.145 855597
452.295 855597
452.445 832660
452.595 809722
452.745 809722
452.895 809722
453.045 809722
453.195 809722
453.345 810226
453.495 810731
453.645 810731
453.795 810731
453.945 810731
454.095 810731
454.245 810731
454.395 847723
454.545 884715
454.695 884715
454.845 884715
454.995 884715
455.145 884715
455.295 884715
455.445 834830
455.595 784945
455.745 784945
455.895 784945
456.045 784945
456.195 784945
456.345 808556
456.495 832166
456.645 832166
456.795 832166
456.945 832166
457.095 832166
457.245 832166
457.395 855718
457.545 879271
457.695 879271
457.845 879271
457.995 879271
458.145 879271
458.295 879271
458.445 815702
458.595 752133
458.745 752133
458.895 752133
459.045 752133
459.195 752133
459.345 797901
459.495 843670
459.645 843670
459.795 843670
459.945 843670
460.095 843670
460.245 843670
460.395 862710
460.545 881749
460.695 881749
460.845 881749
