# lam(nm) Flux (phot/s/cm2/Ang)
465 2.05083e-05
465.125 2.05138e-05
465.25 2.07863e-05
465.375 2.10589e-05
465.5 2.10646e-05
465.625 2.10702e-05
465.75 2.15459e-05
465.875 2.20219e-05
466 2.20278e-05
466.125 2.20337e-05
466.25 2.1625e-05
466.375 2.12161e-05
466.5 2.12218e-05
466.625 2.12275e-05
466.75 2.10876e-05
466.875 2.09476e-05
467 2.09532e-05
467.125 2.09588e-05
467.25 2.08354e-05
467.375 2.07118e-05
467.5 2.07174e-05
467.625 2.07229e-05
467.75 2.05836e-05
467.875 2.04442e-05
468 2.04496e-05
468.125 2.04551e-05
468.25 2.03605e-05
468.375 2.02658e-05
468.5 2.02712e-05
468.625 2.02766e-05
468.75 2.03365e-05
468.875 2.03965e-05
469 2.04019e-05
469.125 2.04073e-05
469.25 2.05844e-05
469.375 2.07616e-05
469.5 2.07671e-05
469.625 2.07726e-05
469.75 2.0686e-05
469.875 2.05994e-05
470 2.06049e-05
470.125 2.06104e-05
470.25 2.05677e-05
470.375 2.05251e-05
470.5 2.05305e-05
470.625 2.0536e-05
470.75 2.05053e-05
470.875 2.04745e-05
471 2.048e-05
471.125 2.04854e-05
471.25 2.07629e-05
471.375 2.10405e-05
471.5 2.10461e-05
471.625 2.10516e-05
471.75 2.1394e-05
471.875 2.17365e-05
472 2.17423e-05
472.125 2.1748e-05
472.25 2.17584e-05
472.375 2.17687e-05
472.5 2.17744e-05
472.625 2.17802e-05
472.75 2.16623e-05
472.875 2.15443e-05
473 2.155e-05
473.125 2.15557e-05
473.25 2.1587e-05
473.375 2.16183e-05
473.5 2.1624e-05
473.625 2.16297e-05
473.75 2.16605e-05
473.875 2.16912e-05
474 2.1697e-05
474.125 2.17027e-05
474.25 2.15339e-05
474.375 2.1365e-05
474.5 2.13706e-05
474.625 2.13763e-05
474.75 2.18486e-05
474.875 2.23212e-05
475 2.23271e-05
475.125 2.23329e-05
475.25 2.19373e-05
475.375 2.15414e-05
475.5 2.1547e-05
475.625 2.15527e-05
475.75 2.12815e-05
475.875 2.10101e-05
476 2.10156e-05
476.125 2.10211e-05
476.25 2.09577e-05
476.375 2.08943e-05
476.5 2.08998e-05
476.625 2.09053e-05
476.75 2.1084e-05
476.875 2.12629e-05
477 2.12684e-05
477.125 2.1274e-05
477.25 2.1513e-05
477.375 2.17521e-05
477.5 2.17578e-05
477.625 2.17635e-05
477.75 2.18065e-05
477.875 2.18496e-05
478 2.18553e-05
478.125 2.1861e-05
478.25 2.18322e-05
478.375 2.18034e-05
478.5 2.18091e-05
478.625 2.18148e-05
478.75 2.19726e-05
478.875 2.21305e-05
479 2.21363e-05
479.125 2.21421e-05
479.25 2.22459e-05
479.375 2.23497e-05
479.5 2.23556e-05
479.625 2.23614e-05
479.75 2.24745e-05
479.875 2.25876e-05
480 2.25935e-05
480.125 2.25994e-05
480.25 2.26219e-05
480.375 2.26445e-05
480.5 2.26504e-05
480.625 2.26563e-05
480.75 2.26617e-05
480.875 2.26672e-05
481 2.26731e-05
481.125 2.2679e-05
481.25 2.27516e-05
481.375 2.28242e-05
481.5 2.28301e-05
481.625 2.28361e-05
481.75 2.28978e-05
481.875 2.29596e-05
482 2.29656e-05
482.125 2.29715e-05
482.25 2.2738e-05
482.375 2.25043e-05
482.5 2.25102e-05
482.625 2.2516e-05
482.75 2.23097e-05
482.875 2.21032e-05
483 2.21089e-05
483.125 2.21147e-05
483.25 2.20717e-05
483.375 2.20288e-05
483.5 2.20345e-05
483.625 2.20402e-05
483.75 2.21312e-05
483.875 2.22222e-05
484 2.22279e-05
484.125 2.22337e-05
484.25 2.22785e-05
484.375 2.23233e-05
484.5 2.23291e-05
484.625 2.23349e-05
484.75 2.22735e-05
484.875 2.22121e-05
485 2.22179e-05
485.125 2.22236e-05
485.25 2.19991e-05
485.375 2.17746e-05
485.5 2.17802e-05
485.625 2.17858e-05
485.75 2.11877e-05
485.875 2.05892e-05
486 2.05945e-05
486.125 2.05998e-05
486.25 2.06975e-05
486.375 2.07953e-05
486.5 2.08006e-05
486.625 2.0806e-05
486.75 2.0327e-05
486.875 1.98477e-05
487 1.98528e-05
487.125 1.98579e-05
487.25 1.98153e-05
487.375 1.97726e-05
487.5 1.97777e-05
487.625 1.97827e-05
487.75 1.98887e-05
487.875 1.99947e-05
488 1.99998e-05
488.125 2.00049e-05
488.25 2.00374e-05
488.375 2.00699e-05
488.5 2.00751e-05
488.625 2.00802e-05
488.75 2.0143e-05
488.875 2.02059e-05
489 2.0211e-05
489.125 2.02162e-05
489.25 2.06229e-05
489.375 2.10298e-05
489.5 2.10351e-05
489.625 2.10405e-05
489.75 2.17208e-05
489.875 2.24014e-05
490 2.24071e-05
490.125 2.24128e-05
490.25 2.26526e-05
490.375 2.28926e-05
490.5 2.28985e-05
490.625 2.29043e-05
490.75 2.28523e-05
490.875 2.28003e-05
491 2.28061e-05
491.125 2.28119e-05
491.25 2.27746e-05
491.375 2.27372e-05
491.5 2.2743e-05
491.625 2.27488e-05
491.75 2.25802e-05
491.875 2.24115e-05
492 2.24172e-05
492.125 2.24229e-05
492.25 2.19488e-05
492.375 2.14746e-05
492.5 2.148e-05
492.625 2.14855e-05
492.75 2.16648e-05
492.875 2.18442e-05
493 2.18497e-05
493.125 2.18553e-05
493.25 2.17595e-05
493.375 2.16636e-05
493.5 2.16691e-05
493.625 2.16746e-05
493.75 2.18165e-05
493.875 2.19586e-05
494 2.19641e-05
494.125 2.19697e-05
494.25 2.22241e-05
494.375 2.24787e-05
494.5 2.24843e-05
494.625 2.249e-05
494.75 2.27705e-05
494.875 2.30511e-05
495 2.30569e-05
495.125 2.30627e-05
495.25 2.31379e-05
495.375 2.32131e-05
495.5 2.3219e-05
495.625 2.32248e-05
495.75 2.27504e-05
495.875 2.22757e-05
496 2.22813e-05
496.125 2.22869e-05
496.25 2.21473e-05
496.375 2.20076e-05
496.5 2.20132e-05
496.625 2.20187e-05
496.75 2.20287e-05
496.875 2.20387e-05
497 2.20442e-05
497.125 2.20498e-05
497.25 2.20298e-05
497.375 2.20099e-05
497.5 2.20155e-05
497.625 2.2021e-05
497.75 2.17605e-05
497.875 2.14998e-05
498 2.15052e-05
498.125 2.15106e-05
498.25 2.12697e-05
498.375 2.10286e-05
498.5 2.10339e-05
498.625 2.10392e-05
498.75 2.13296e-05
498.875 2.16201e-05
499 2.16255e-05
499.125 2.16309e-05
499.25 2.17891e-05
499.375 2.19474e-05
499.5 2.19529e-05
499.625 2.19584e-05
499.75 2.20568e-05
499.875 2.21554e-05
500 2.21609e-05
500.125 2.21664e-05
500.25 2.22037e-05
500.375 2.2241e-05
500.5 2.22466e-05
500.625 2.22521e-05
500.75 2.22041e-05
500.875 2.21561e-05
501 2.21616e-05
501.125 2.21672e-05
501.25 2.20109e-05
501.375 2.18546e-05
501.5 2.18601e-05
501.625 2.18655e-05
501.75 2.16541e-05
501.875 2.14426e-05
502 2.14479e-05
502.125 2.14532e-05
502.25 2.16191e-05
502.375 2.1785e-05
502.5 2.17904e-05
502.625 2.17958e-05
502.75 2.21507e-05
502.875 2.25058e-05
503 2.25114e-05
503.125 2.2517e-05
503.25 2.24933e-05
503.375 2.24696e-05
503.5 2.24752e-05
503.625 2.24808e-05
503.75 2.23219e-05
503.875 2.21628e-05
504 2.21683e-05
504.125 2.21738e-05
504.25 2.2154e-05
504.375 2.21342e-05
504.5 2.21397e-05
504.625 2.21452e-05
504.75 2.23637e-05
504.875 2.25823e-05
505 2.25879e-05
505.125 2.25935e-05
505.25 2.24955e-05
505.375 2.23973e-05
505.5 2.24029e-05
505.625 2.24084e-05
505.75 2.26787e-05
505.875 2.29491e-05
506 2.29547e-05
506.125 2.29604e-05
506.25 2.32325e-05
506.375 2.35048e-05
506.5 2.35106e-05
506.625 2.35164e-05
506.75 2.35429e-05
506.875 2.35694e-05
507 2.35753e-05
507.125 2.35811e-05
507.25 2.32555e-05
507.375 2.29298e-05
507.5 2.29355e-05
507.625 2.29411e-05
507.75 2.23666e-05
507.875 2.17918e-05
508 2.17972e-05
508.125 2.18026e-05
508.25 2.21854e-05
508.375 2.25684e-05
508.5 2.25739e-05
508.625 2.25795e-05
508.75 2.27319e-05
508.875 2.28844e-05
509 2.289e-05
509.125 2.28957e-05
509.25 2.29397e-05
509.375 2.29837e-05
509.5 2.29893e-05
509.625 2.2995e-05
509.75 2.2929e-05
509.875 2.28631e-05
510 2.28687e-05
510.125 2.28743e-05
510.25 2.27532e-05
510.375 2.2632e-05
510.5 2.26375e-05
510.625 2.26431e-05
510.75 2.29252e-05
510.875 2.32074e-05
511 2.32131e-05
511.125 2.32187e-05
511.25 2.33392e-05
511.375 2.34598e-05
511.5 2.34655e-05
511.625 2.34712e-05
511.75 2.34756e-05
511.875 2.34799e-05
512 2.34856e-05
512.125 2.34913e-05
512.25 2.32044e-05
512.375 2.29174e-05
512.5 2.2923e-05
512.625 2.29286e-05
512.75 2.26058e-05
512.875 2.22828e-05
513 2.22882e-05
513.125 2.22936e-05
513.25 2.26985e-05
513.375 2.31035e-05
513.5 2.31091e-05
513.625 2.31147e-05
513.75 2.27871e-05
513.875 2.24594e-05
514 2.24648e-05
514.125 2.24703e-05
514.25 2.2532e-05
514.375 2.25937e-05
514.5 2.25991e-05
514.625 2.26046e-05
514.75 2.2692e-05
514.875 2.27794e-05
515 2.27849e-05
515.125 2.27905e-05
515.25 2.27249e-05
515.375 2.26593e-05
515.5 2.26648e-05
515.625 2.26703e-05
515.75 2.24342e-05
515.875 2.21981e-05
516 2.22034e-05
516.125 2.22088e-05
516.25 2.21403e-05
516.375 2.20716e-05
516.5 2.2077e-05
516.625 2.20823e-05
516.75 2.10881e-05
516.875 2.00933e-05
517 2.00981e-05
517.125 2.0103e-05
517.25 1.98813e-05
517.375 1.96594e-05
517.5 1.96642e-05
517.625 1.96689e-05
517.75 2.00345e-05
517.875 2.04003e-05
518 2.04053e-05
518.125 2.04102e-05
518.25 2.07274e-05
518.375 2.10447e-05
518.5 2.10498e-05
518.625 2.10548e-05
518.75 2.11866e-05
518.875 2.13185e-05
519 2.13236e-05
519.125 2.13288e-05
519.25 2.18373e-05
519.375 2.23461e-05
519.5 2.23515e-05
519.625 2.23569e-05
519.75 2.28458e-05
519.875 2.3335e-05
520 2.33406e-05
520.125 2.33462e-05
520.25 2.35249e-05
520.375 2.37036e-05
520.5 2.37093e-05
520.625 2.3715e-05
520.75 2.34796e-05
520.875 2.3244e-05
521 2.32496e-05
521.125 2.32552e-05
521.25 2.3009e-05
521.375 2.27627e-05
521.5 2.27682e-05
521.625 2.27736e-05
521.75 2.30405e-05
521.875 2.33074e-05
522 2.3313e-05
522.125 2.33186e-05
522.25 2.31281e-05
522.375 2.29375e-05
522.5 2.29429e-05
522.625 2.29484e-05
522.75 2.29033e-05
522.875 2.28581e-05
523 2.28635e-05
523.125 2.2869e-05
523.25 2.33915e-05
523.375 2.39143e-05
523.5 2.392e-05
523.625 2.39257e-05
523.75 2.41543e-05
523.875 2.43831e-05
524 2.43889e-05
524.125 2.43947e-05
524.25 2.45499e-05
524.375 2.47052e-05
524.5 2.47111e-05
524.625 2.4717e-05
524.75 2.45395e-05
524.875 2.43618e-05
525 2.43676e-05
525.125 2.43734e-05
525.25 2.41631e-05
525.375 2.39526e-05
525.5 2.39583e-05
525.625 2.3964e-05
525.75 2.39116e-05
525.875 2.38591e-05
526 2.38648e-05
526.125 2.38704e-05
526.25 2.32146e-05
526.375 2.25584e-05
526.5 2.25638e-05
526.625 2.25691e-05
526.75 2.20104e-05
526.875 2.14514e-05
527 2.14565e-05
527.125 2.14616e-05
527.25 2.18888e-05
527.375 2.23162e-05
527.5 2.23215e-05
527.625 2.23267e-05
527.75 2.31614e-05
527.875 2.39965e-05
528 2.40022e-05
528.125 2.40079e-05
528.25 2.4383e-05
528.375 2.47582e-05
528.5 2.47641e-05
528.625 2.47699e-05
528.75 2.51741e-05
528.875 2.55784e-05
529 2.55845e-05
529.125 2.55905e-05
529.25 2.55335e-05
529.375 2.54765e-05
529.5 2.54825e-05
529.625 2.54885e-05
529.75 2.53872e-05
529.875 2.52859e-05
530 2.52919e-05
530.125 2.52978e-05
530.25 2.53688e-05
530.375 2.54399e-05
530.5 2.54459e-05
530.625 2.54519e-05
530.75 2.58376e-05
530.875 2.62234e-05
531 2.62296e-05
531.125 2.62358e-05
531.25 2.59595e-05
531.375 2.56832e-05
531.5 2.56892e-05
531.625 2.56953e-05
531.75 2.56181e-05
531.875 2.5541e-05
532 2.5547e-05
532.125 2.5553e-05
532.25 2.53605e-05
532.375 2.51678e-05
532.5 2.51738e-05
532.625 2.51797e-05
532.75 2.48445e-05
532.875 2.45092e-05
533 2.4515e-05
533.125 2.45207e-05
533.25 2.46071e-05
533.375 2.46935e-05
533.5 2.46992e-05
533.625 2.4705e-05
533.75 2.47299e-05
533.875 2.47548e-05
534 2.47606e-05
534.125 2.47664e-05
534.25 2.48432e-05
534.375 2.49199e-05
534.5 2.49258e-05
534.625 2.49316e-05
534.75 2.51579e-05
534.875 2.53842e-05
535 2.53902e-05
535.125 2.53961e-05
535.25 2.58217e-05
535.375 2.62476e-05
535.5 2.62537e-05
535.625 2.62598e-05
535.75 2.63483e-05
535.875 2.64369e-05
536 2.6443e-05
536.125 2.64492e-05
536.25 2.62313e-05
536.375 2.60133e-05
536.5 2.60194e-05
536.625 2.60254e-05
536.75 2.57738e-05
536.875 2.5522e-05
537 2.5528e-05
537.125 2.55339e-05
537.25 2.53833e-05
537.375 2.52327e-05
537.5 2.52385e-05
537.625 2.52444e-05
537.75 2.52641e-05
537.875 2.52837e-05
538 2.52896e-05
538.125 2.52955e-05
538.25 2.57954e-05
538.375 2.62956e-05
538.5 2.63017e-05
538.625 2.63078e-05
538.75 2.62295e-05
538.875 2.61512e-05
539 2.61572e-05
539.125 2.61633e-05
539.25 2.58933e-05
539.375 2.56232e-05
539.5 2.56291e-05
539.625 2.5635e-05
539.75 2.57144e-05
539.875 2.57938e-05
540 2.57998e-05
540.125 2.58058e-05
540.25 2.58412e-05
540.375 2.58766e-05
540.5 2.58826e-05
540.625 2.58885e-05
540.75 2.59731e-05
540.875 2.60577e-05
541 2.60638e-05
541.125 2.60698e-05
541.25 2.61033e-05
541.375 2.61369e-05
541.5 2.61429e-05
541.625 2.61489e-05
541.75 2.6121e-05
541.875 2.6093e-05
542 2.60991e-05
542.125 2.61051e-05
542.25 2.61818e-05
542.375 2.62586e-05
542.5 2.62647e-05
542.625 2.62707e-05
542.75 2.63278e-05
542.875 2.63849e-05
543 2.6391e-05
543.125 2.63971e-05
543.25 2.62425e-05
543.375 2.60878e-05
543.5 2.60938e-05
543.625 2.60998e-05
543.75 2.60197e-05
543.875 2.59395e-05
544 2.59455e-05
544.125 2.59514e-05
544.25 2.65639e-05
544.375 2.71767e-05
544.5 2.71829e-05
544.625 2.71892e-05
544.75 2.71073e-05
544.875 2.70253e-05
545 2.70315e-05
545.125 2.70377e-05
545.25 2.69324e-05
545.375 2.6827e-05
545.5 2.68331e-05
545.625 2.68393e-05
545.75 2.67398e-05
545.875 2.66402e-05
546 2.66463e-05
546.125 2.66524e-05
546.25 2.6553e-05
546.375 2.64535e-05
546.5 2.64596e-05
546.625 2.64656e-05
546.75 2.63732e-05
546.875 2.62807e-05
547 2.62867e-05
547.125 2.62928e-05
547.25 2.6234e-05
547.375 2.61753e-05
547.5 2.61813e-05
547.625 2.61873e-05
547.75 2.60413e-05
547.875 2.58953e-05
548 2.59012e-05
548.125 2.59071e-05
548.25 2.56594e-05
548.375 2.54115e-05
548.5 2.54173e-05
548.625 2.54231e-05
548.75 2.55385e-05
548.875 2.56539e-05
549 2.56598e-05
549.125 2.56656e-05
549.25 2.60616e-05
549.375 2.64578e-05
549.5 2.64639e-05
549.625 2.64699e-05
549.75 2.66543e-05
549.875 2.68388e-05
550 2.68449e-05
550.125 2.6851e-05
550.25 2.67068e-05
550.375 2.65624e-05
550.5 2.65684e-05
550.625 2.65745e-05
550.75 2.64077e-05
550.875 2.62408e-05
551 2.62467e-05
551.125 2.62527e-05
551.25 2.6271e-05
551.375 2.62894e-05
551.5 2.62953e-05
551.625 2.63013e-05
551.75 2.63597e-05
551.875 2.64182e-05
552 2.64242e-05
552.125 2.64302e-05
552.25 2.63935e-05
552.375 2.63569e-05
552.5 2.63628e-05
552.625 2.63688e-05
552.75 2.59156e-05
552.875 2.54621e-05
553 2.54679e-05
553.125 2.54736e-05
553.25 2.57263e-05
553.375 2.5979e-05
553.5 2.59849e-05
553.625 2.59907e-05
553.75 2.64442e-05
553.875 2.68978e-05
554 2.69039e-05
554.125 2.69099e-05
554.25 2.7279e-05
554.375 2.76483e-05
554.5 2.76545e-05
554.625 2.76607e-05
554.75 2.74367e-05
554.875 2.72127e-05
555 2.72188e-05
555.125 2.72249e-05
555.25 2.70234e-05
555.375 2.68217e-05
555.5 2.68277e-05
555.625 2.68338e-05
555.75 2.66787e-05
555.875 2.65236e-05
556 2.65296e-05
556.125 2.65355e-05
556.25 2.65317e-05
556.375 2.65279e-05
556.5 2.65339e-05
556.625 2.65399e-05
556.75 2.6938e-05
556.875 2.73364e-05
557 2.73425e-05
557.125 2.73487e-05
557.25 2.73108e-05
557.375 2.72729e-05
557.5 2.7279e-05
557.625 2.72851e-05
557.75 2.70176e-05
557.875 2.675e-05
558 2.6756e-05
558.125 2.6762e-05
558.25 2.64202e-05
558.375 2.60782e-05
558.5 2.60841e-05
558.625 2.60899e-05
558.75 2.5983e-05
558.875 2.58762e-05
559 2.58819e-05
559.125 2.58877e-05
559.25 2.59102e-05
559.375 2.59328e-05
559.5 2.59385e-05
559.625 2.59443e-05
559.75 2.59806e-05
559.875 2.60168e-05
560 2.60226e-05
560.125 2.60285e-05
560.25 2.61555e-05
560.375 2.62825e-05
560.5 2.62884e-05
560.625 2.62943e-05
560.75 2.67954e-05
560.875 2.72967e-05
561 2.73028e-05
561.125 2.73088e-05
561.25 2.76655e-05
561.375 2.80224e-05
561.5 2.80286e-05
561.625 2.80348e-05
561.75 2.81638e-05
561.875 2.82928e-05
562 2.82991e-05
562.125 2.83054e-05
562.25 2.81852e-05
562.375 2.8065e-05
562.5 2.80712e-05
562.625 2.80775e-05
562.75 2.76771e-05
562.875 2.72765e-05
563 2.72826e-05
563.125 2.72886e-05
563.25 2.7328e-05
563.375 2.73674e-05
563.5 2.73735e-05
563.625 2.73795e-05
563.75 2.73144e-05
563.875 2.72493e-05
564 2.72553e-05
564.125 2.72614e-05
564.25 2.70238e-05
564.375 2.67862e-05
564.5 2.67921e-05
564.625 2.6798e-05
564.75 2.69687e-05
564.875 2.71395e-05
565 2.71455e-05
565.125 2.71515e-05
565.25 2.71601e-05
565.375 2.71687e-05
565.5 2.71747e-05
565.625 2.71807e-05
565.75 2.7015e-05
565.875 2.68491e-05
566 2.6855e-05
566.125 2.6861e-05
566.25 2.65669e-05
566.375 2.62727e-05
566.5 2.62785e-05
566.625 2.62843e-05
566.75 2.68258e-05
566.875 2.73677e-05
567 2.73737e-05
567.125 2.73797e-05
567.25 2.75242e-05
567.375 2.76688e-05
567.5 2.76748e-05
567.625 2.76809e-05
567.75 2.77843e-05
567.875 2.78876e-05
568 2.78938e-05
568.125 2.78999e-05
568.25 2.82567e-05
568.375 2.86136e-05
568.5 2.86199e-05
568.625 2.86262e-05
568.75 2.88793e-05
568.875 2.91325e-05
569 2.91389e-05
569.125 2.91453e-05
569.25 2.9057e-05
569.375 2.89687e-05
569.5 2.89751e-05
569.625 2.89814e-05
569.75 2.86597e-05
569.875 2.83378e-05
570 2.8344e-05
570.125 2.83502e-05
570.25 2.79609e-05
570.375 2.75714e-05
570.5 2.75775e-05
570.625 2.75835e-05
570.75 2.73915e-05
570.875 2.71994e-05
571 2.72054e-05
571.125 2.72113e-05
571.25 2.74087e-05
571.375 2.76061e-05
571.5 2.76121e-05
571.625 2.76181e-05
571.75 2.81312e-05
571.875 2.86446e-05
572 2.86508e-05
572.125 2.86571e-05
572.25 2.90536e-05
572.375 2.94502e-05
572.5 2.94567e-05
572.625 2.94631e-05
572.75 2.96072e-05
572.875 2.97513e-05
573 2.97578e-05
573.125 2.97643e-05
573.25 2.9877e-05
573.375 2.99899e-05
573.5 2.99964e-05
573.625 3.00029e-05
573.75 3.01459e-05
573.875 3.02888e-05
574 3.02954e-05
574.125 3.0302e-05
574.25 2.96629e-05
574.375 2.90234e-05
574.5 2.90297e-05
574.625 2.9036e-05
574.75 2.9001e-05
574.875 2.8966e-05
575 2.89723e-05
575.125 2.89786e-05
575.25 2.90837e-05
575.375 2.91889e-05
575.5 2.91953e-05
575.625 2.92016e-05
575.75 2.88678e-05
575.875 2.85339e-05
576 2.85401e-05
576.125 2.85463e-05
576.25 2.8625e-05
576.375 2.87037e-05
576.5 2.87099e-05
576.625 2.87161e-05
576.75 2.89818e-05
576.875 2.92476e-05
577 2.92539e-05
577.125 2.92603e-05
577.25 2.95936e-05
577.375 2.9927e-05
577.5 2.99335e-05
577.625 2.994e-05
577.75 2.98884e-05
577.875 2.98368e-05
578 2.98432e-05
578.125 2.98497e-05
578.25 2.96962e-05
578.375 2.95427e-05
578.5 2.95491e-05
578.625 2.95555e-05
578.75 2.94394e-05
578.875 2.93233e-05
579 2.93296e-05
579.125 2.93359e-05
579.25 2.93384e-05
579.375 2.93409e-05
579.5 2.93472e-05
579.625 2.93535e-05
579.75 2.9645e-05
579.875 2.99365e-05
580 2.9943e-05
580.125 2.99494e-05
580.25 2.97953e-05
580.375 2.96412e-05
580.5 2.96476e-05
580.625 2.96539e-05
580.75 2.92895e-05
580.875 2.8925e-05
581 2.89312e-05
581.125 2.89374e-05
581.25 2.89426e-05
581.375 2.89478e-05
581.5 2.89541e-05
581.625 2.89603e-05
581.75 2.90247e-05
581.875 2.90891e-05
582 2.90954e-05
582.125 2.91016e-05
582.25 2.93377e-05
582.375 2.9574e-05
582.5 2.95803e-05
582.625 2.95867e-05
582.75 3.00386e-05
582.875 3.04907e-05
583 3.04972e-05
583.125 3.05038e-05
583.25 3.08087e-05
583.375 3.11138e-05
583.5 3.11204e-05
583.625 3.11271e-05
583.75 3.08675e-05
583.875 3.06078e-05
584 3.06144e-05
584.125 3.0621e-05
584.25 3.0217e-05
584.375 2.98129e-05
584.5 2.98193e-05
584.625 2.98257e-05
584.75 3.00734e-05
584.875 3.03211e-05
585 3.03276e-05
585.125 3.03341e-05
585.25 3.04927e-05
585.375 3.06514e-05
585.5 3.0658e-05
585.625 3.06645e-05
585.75 3.0724e-05
585.875 3.07836e-05
586 3.07902e-05
586.125 3.07967e-05
586.25 3.07478e-05
586.375 3.06988e-05
586.5 3.07053e-05
586.625 3.07119e-05
586.75 3.06727e-05
586.875 3.06336e-05
587 3.06401e-05
587.125 3.06466e-05
587.25 3.05547e-05
587.375 3.04627e-05
587.5 3.04692e-05
587.625 3.04757e-05
587.75 3.03467e-05
587.875 3.02176e-05
588 3.0224e-05
588.125 3.02304e-05
588.25 3.00852e-05
588.375 2.99399e-05
588.5 2.99463e-05
588.625 2.99526e-05
588.75 2.86388e-05
588.875 2.73243e-05
589 2.73301e-05
589.125 2.73359e-05
589.25 2.63092e-05
589.375 2.52821e-05
589.5 2.52875e-05
589.625 2.52928e-05
589.75 2.51719e-05
589.875 2.5051e-05
590 2.50563e-05
590.125 2.50616e-05
590.25 2.612e-05
590.375 2.71788e-05
